t	PV [ºC]	SP [ºC]	MV[A]
0,000	0,000	69,000	3,200E-1
0,000	0,000	69,000	3,200E-1
0,000	0,000	69,000	3,200E-1
2,141	61,532	69,000	3,200E-1
2,141	61,532	69,000	0,000E+0
4,308	61,505	69,000	3,200E-1
4,308	61,505	69,000	3,200E-1
6,475	61,448	69,000	3,200E-1
6,475	61,448	69,000	3,200E-1
8,640	61,420	69,000	3,200E-1
8,640	61,420	69,000	3,200E-1
10,809	61,420	69,000	3,200E-1
10,809	61,438	69,000	3,200E-1
12,975	61,438	69,000	3,200E-1
12,975	61,388	69,000	3,200E-1
12,975	61,388	69,000	3,200E-1
15,142	61,390	69,000	3,200E-1
15,142	61,390	69,000	3,200E-1
17,307	61,407	69,000	3,200E-1
17,307	61,407	69,000	3,200E-1
19,474	61,380	69,000	3,200E-1
19,474	61,380	69,000	3,200E-1
21,641	61,364	69,000	3,200E-1
21,641	61,364	69,000	3,200E-1
23,810	61,364	69,000	3,200E-1
23,810	61,374	69,000	3,200E-1
25,976	61,374	69,000	3,200E-1
25,976	61,368	69,000	3,200E-1
25,976	61,368	69,000	3,200E-1
28,143	61,321	69,000	3,200E-1
28,143	61,321	69,000	3,200E-1
30,308	61,328	69,000	3,200E-1
30,308	61,328	69,000	3,200E-1
32,475	61,316	69,000	3,200E-1
32,475	61,316	69,000	3,200E-1
34,641	61,309	69,000	3,200E-1
34,641	61,309	69,000	3,200E-1
36,808	61,309	69,000	3,200E-1
36,808	61,289	69,000	3,200E-1
38,977	61,289	69,000	3,200E-1
38,977	61,282	69,000	3,200E-1
38,977	61,282	69,000	3,200E-1
41,144	61,267	69,000	3,200E-1
41,144	61,267	69,000	3,200E-1
43,308	61,242	69,000	3,200E-1
43,308	61,242	69,000	3,200E-1
45,473	61,279	69,000	3,200E-1
45,473	61,279	69,000	3,200E-1
47,638	61,272	69,000	3,200E-1
47,638	61,272	69,000	3,200E-1
49,805	61,272	69,000	3,200E-1
49,805	61,311	69,000	3,200E-1
51,972	61,311	69,000	3,200E-1
51,972	61,265	69,000	3,200E-1
51,972	61,265	69,000	3,200E-1
54,138	61,272	69,000	3,200E-1
54,138	61,272	69,000	3,200E-1
56,303	61,267	69,000	3,200E-1
56,303	61,267	69,000	3,200E-1
58,470	61,201	69,000	3,200E-1
58,470	61,201	69,000	3,200E-1
60,635	61,205	69,000	3,200E-1
60,635	61,205	69,000	3,200E-1
62,801	61,205	69,000	3,200E-1
62,801	61,195	69,000	3,200E-1
64,966	61,195	69,000	3,200E-1
64,966	61,142	69,000	3,200E-1
64,966	61,142	65,000	0,000E+0
67,129	61,136	65,000	3,200E-1
67,129	61,136	65,000	3,200E-1
69,295	61,122	65,000	3,200E-1
69,295	61,122	65,000	3,200E-1
71,464	61,143	65,000	3,200E-1
71,464	61,143	65,000	3,200E-1
73,631	61,143	65,000	3,200E-1
73,631	61,143	62,000	0,000E+0
75,800	61,143	62,000	1,182E-1
75,800	61,163	62,000	2,363E-1
77,963	61,163	62,000	1,869E-1
77,963	61,156	62,000	3,023E-1
77,963	61,156	62,000	3,200E-1
80,130	61,171	62,000	3,200E-1
80,130	61,171	62,000	3,106E-1
82,296	61,146	62,000	3,200E-1
82,296	61,146	62,000	3,200E-1
84,463	61,161	62,000	3,200E-1
84,463	61,161	62,000	3,120E-1
86,630	61,173	62,000	3,200E-1
86,630	61,173	62,000	3,200E-1
88,799	61,173	62,000	3,200E-1
88,799	61,139	62,000	3,200E-1
90,964	61,139	62,000	3,200E-1
90,964	61,144	62,000	3,200E-1
90,964	61,144	62,000	3,200E-1
93,130	61,135	62,000	3,200E-1
93,130	61,135	62,000	3,200E-1
95,293	61,118	62,000	3,200E-1
95,293	61,118	62,000	3,200E-1
97,458	61,111	62,000	3,200E-1
97,458	61,111	62,000	3,200E-1
99,625	61,061	62,000	3,200E-1
99,625	61,061	62,000	3,200E-1
101,791	61,061	62,000	3,200E-1
101,791	61,052	62,000	3,200E-1
103,958	61,052	62,000	3,200E-1
103,958	61,094	62,000	3,200E-1
103,958	61,094	62,000	9,876E-2
106,125	61,103	62,000	2,236E-1
106,125	61,103	61,000	0,000E+0
108,290	61,078	61,000	0,000E+0
108,290	61,078	61,000	1,954E-1
110,529	61,113	61,000	1,846E-1
110,529	61,113	61,000	0,000E+0
112,773	61,113	61,000	0,000E+0
112,773	61,127	61,000	0,000E+0
115,012	61,127	61,000	0,000E+0
115,012	61,139	61,000	0,000E+0
115,012	61,139	61,000	0,000E+0
117,251	61,154	61,000	0,000E+0
117,251	61,154	61,000	0,000E+0
119,492	61,099	61,000	0,000E+0
119,492	61,099	61,000	3,200E-1
121,733	61,084	61,000	3,064E-1
121,733	61,084	61,000	3,200E-1
123,976	61,084	61,000	3,084E-1
123,976	61,119	61,000	2,968E-1
123,976	61,119	61,000	0,000E+0
126,214	61,116	61,000	0,000E+0
126,214	61,116	61,000	8,740E-3
128,458	61,122	61,000	0,000E+0
128,458	61,122	61,000	0,000E+0
130,698	61,089	61,000	0,000E+0
130,698	61,089	61,000	2,598E-1
132,937	61,089	61,000	2,475E-1
132,937	61,149	61,000	2,353E-1
132,937	61,149	61,000	0,000E+0
135,180	61,120	61,000	0,000E+0
135,180	61,120	61,000	2,225E-1
137,421	61,063	61,000	2,060E-1
137,421	61,063	61,000	3,200E-1
139,660	61,109	61,000	3,113E-1
139,660	61,109	61,000	0,000E+0
141,899	61,109	61,000	0,000E+0
141,899	61,150	61,000	0,000E+0
141,899	61,150	61,000	0,000E+0
144,141	61,107	61,000	0,000E+0
144,141	61,107	61,000	3,200E-1
146,382	61,122	61,000	3,052E-1
146,382	61,122	61,000	1,647E-1
148,621	61,110	61,000	1,479E-1
148,621	61,110	61,000	2,317E-1
150,862	61,110	61,000	2,165E-1
150,862	61,078	61,000	2,013E-1
150,862	61,078	61,000	3,200E-1
153,103	61,079	61,000	3,092E-1
153,103	61,079	61,000	2,901E-1
155,344	61,083	61,000	2,792E-1
155,344	61,083	61,000	2,348E-1
157,583	61,105	61,000	2,233E-1
157,583	61,105	61,000	2,746E-2
159,822	61,105	61,000	1,299E-2
159,822	61,132	61,000	0,000E+0
159,822	61,132	61,000	0,000E+0
162,064	61,074	61,000	0,000E+0
162,064	61,074	61,000	3,200E-1
164,305	61,107	61,000	3,098E-1
164,305	61,107	61,000	2,294E-2
166,548	61,081	61,000	8,201E-3
166,548	61,081	61,000	2,114E-1
168,789	61,081	61,000	2,002E-1
168,789	61,108	61,000	1,891E-1
171,026	61,108	61,000	0,000E+0
171,026	61,144	61,000	0,000E+0
171,026	61,144	61,000	0,000E+0
173,267	61,162	61,000	0,000E+0
173,267	61,162	61,000	0,000E+0
175,506	61,174	61,000	0,000E+0
175,506	61,174	61,000	0,000E+0
177,748	61,155	61,000	0,000E+0
177,748	61,155	61,000	1,353E-1
179,989	61,155	61,000	1,139E-1
179,989	61,116	61,000	9,254E-2
179,989	61,116	61,000	3,200E-1
182,228	61,129	61,000	3,040E-1
182,228	61,129	61,000	1,790E-1
184,469	61,127	61,000	1,613E-1
184,469	61,127	61,000	1,602E-1
186,710	61,122	61,000	1,427E-1
186,710	61,122	61,000	1,671E-1
188,949	61,122	61,000	1,503E-1
188,949	61,110	61,000	1,335E-1
188,949	61,110	61,000	2,173E-1
191,190	61,106	61,000	2,021E-1
191,190	61,106	61,000	2,204E-1
193,432	61,118	61,000	2,058E-1
193,432	61,118	61,000	9,062E-2
195,671	61,085	61,000	7,435E-2
195,671	61,085	61,000	3,200E-1
197,912	61,085	61,000	3,083E-1
197,912	61,095	61,000	2,966E-1
197,912	61,095	61,000	2,010E-1
200,153	61,058	61,000	1,879E-1
200,153	61,058	61,000	3,200E-1
202,392	61,100	61,000	3,120E-1
202,392	61,100	61,000	0,000E+0
204,635	61,101	61,000	0,000E+0
204,635	61,101	61,000	0,000E+0
206,876	61,101	61,000	0,000E+0
206,876	61,142	61,000	0,000E+0
206,876	61,142	61,000	0,000E+0
209,119	61,120	61,000	0,000E+0
209,119	61,120	61,000	1,648E-1
211,360	61,069	61,000	1,483E-1
211,360	61,069	61,000	3,200E-1
213,602	61,093	61,000	3,105E-1
213,602	61,093	61,000	9,977E-2
215,843	61,093	61,000	8,696E-2
215,843	61,063	61,000	7,413E-2
215,843	61,063	61,000	3,128E-1
218,088	61,083	61,000	3,041E-1
218,088	61,083	61,000	1,278E-1
220,329	61,145	61,000	1,163E-1
220,329	61,145	61,000	0,000E+0
222,572	61,152	61,000	0,000E+0
222,572	61,152	61,000	0,000E+0
224,813	61,152	61,000	0,000E+0
224,813	61,172	61,000	0,000E+0
227,052	61,172	61,000	0,000E+0
227,052	61,165	61,000	0,000E+0
227,052	61,165	61,000	3,499E-2
229,295	61,189	61,000	1,223E-2
229,295	61,189	61,000	0,000E+0
231,538	61,216	61,000	0,000E+0
231,538	61,216	61,000	0,000E+0
233,781	61,216	61,000	0,000E+0
233,781	61,137	61,000	0,000E+0
236,021	61,137	61,000	3,200E-1
236,021	61,160	61,000	3,011E-1
236,021	61,160	61,000	8,939E-2
238,262	61,160	61,000	6,732E-2
238,262	61,160	61,000	4,526E-2
240,503	61,148	61,000	2,322E-2
240,503	61,148	61,000	1,017E-1
242,744	61,128	61,000	8,135E-2
242,744	61,128	61,000	2,286E-1
244,983	61,128	61,000	2,109E-1
244,983	61,113	61,000	1,933E-1
244,983	61,113	61,000	3,014E-1
247,224	61,140	61,000	2,858E-1
247,224	61,140	61,000	4,389E-2
249,465	61,159	61,000	2,456E-2
249,465	61,159	61,000	0,000E+0
251,704	61,206	61,000	0,000E+0
251,704	61,206	61,000	0,000E+0
253,943	61,206	61,000	0,000E+0
253,943	61,194	61,000	0,000E+0
253,943	61,194	61,000	7,219E-2
256,186	61,214	61,000	4,544E-2
256,186	61,214	61,000	0,000E+0
258,428	61,232	61,000	0,000E+0
258,428	61,232	61,000	0,000E+0
260,669	61,208	61,000	0,000E+0
260,669	61,208	61,000	1,692E-1
