t	PC(E)	PL(E)	PC(T)	PL(T)	Vel
0,000	0,000	0,000	0,000E+0	0,000E+0	0,000E+0
0,202	0,000	0,000	0,000E+0	0,000E+0	0,000E+0
0,202	1,050	0,000	1,320E+0	1,320E+0	0,000E+0
0,401	1,050	0,000	1,320E+0	1,320E+0	0,000E+0
0,602	1,050	0,000	1,050E+0	1,050E+0	0,000E+0
0,803	1,050	0,000	1,050E+0	1,050E+0	0,000E+0
1,003	1,050	0,000	1,050E+0	1,050E+0	0,000E+0
1,203	1,050	0,000	1,050E+0	1,050E+0	0,000E+0
1,405	0,870	0,000	1,050E+0	1,050E+0	0,000E+0
1,605	0,870	0,000	1,050E+0	1,050E+0	0,000E+0
1,805	0,870	0,000	8,700E-1	8,700E-1	0,000E+0
2,007	0,870	0,000	8,700E-1	8,700E-1	0,000E+0
2,208	0,870	0,000	8,700E-1	8,700E-1	0,000E+0
2,408	0,870	0,000	8,700E-1	8,700E-1	0,000E+0
2,608	1,010	0,000	8,700E-1	8,700E-1	0,000E+0
2,810	1,010	0,000	8,700E-1	8,700E-1	0,000E+0
3,012	1,010	0,000	1,010E+0	1,010E+0	0,000E+0
3,214	1,010	0,000	1,010E+0	1,010E+0	0,000E+0
3,414	0,950	0,000	1,010E+0	1,010E+0	0,000E+0
3,614	0,950	0,000	1,010E+0	1,010E+0	0,000E+0
3,815	0,950	0,000	9,500E-1	9,500E-1	0,000E+0
4,015	0,950	0,000	9,500E-1	9,500E-1	0,000E+0
4,215	0,950	0,000	9,500E-1	9,500E-1	0,000E+0
4,415	0,950	0,000	9,500E-1	9,500E-1	0,000E+0
4,615	1,180	0,000	9,500E-1	9,500E-1	0,000E+0
4,817	1,180	0,000	9,500E-1	9,500E-1	0,000E+0
5,018	1,180	0,000	1,180E+0	1,180E+0	0,000E+0
5,217	1,180	0,000	1,180E+0	1,180E+0	0,000E+0
5,418	1,180	0,000	1,180E+0	0,000E+0	0,000E+0
5,617	1,180	0,000	1,180E+0	0,000E+0	0,000E+0
5,820	1,210	0,000	1,047E+0	1,047E+0	0,000E+0
6,019	1,210	0,000	1,047E+0	1,047E+0	0,000E+0
6,219	1,210	0,000	1,210E+0	1,210E+0	0,000E+0
6,421	1,210	0,000	1,210E+0	1,210E+0	0,000E+0
6,621	1,210	0,000	1,210E+0	1,210E+0	0,000E+0
6,822	1,210	0,000	1,210E+0	1,210E+0	0,000E+0
7,023	1,150	0,000	1,210E+0	1,210E+0	0,000E+0
7,223	1,150	0,000	1,210E+0	1,210E+0	0,000E+0
7,423	1,150	0,000	1,150E+0	1,150E+0	0,000E+0
7,622	1,150	0,000	1,150E+0	1,150E+0	0,000E+0
7,822	1,150	0,000	1,150E+0	1,150E+0	0,000E+0
8,023	1,150	0,000	1,150E+0	1,150E+0	0,000E+0
8,224	1,150	0,000	1,150E+0	1,150E+0	0,000E+0
8,424	1,020	0,000	1,150E+0	1,150E+0	0,000E+0
8,625	1,020	0,000	1,150E+0	1,150E+0	0,000E+0
8,825	1,020	0,000	1,020E+0	1,020E+0	0,000E+0
9,228	1,020	0,000	1,020E+0	1,020E+0	1,200E+3
9,228	1,130	0,000	1,020E+0	1,020E+0	1,200E+3
9,430	1,130	0,000	1,020E+0	1,020E+0	1,200E+3
9,630	1,130	0,000	1,130E+0	1,130E+0	1,200E+3
9,832	1,130	0,000	1,130E+0	1,130E+0	1,200E+3
10,032	1,130	0,000	1,130E+0	1,130E+0	1,200E+3
10,233	1,130	0,000	1,130E+0	1,130E+0	1,200E+3
10,433	1,980	0,000	1,130E+0	1,130E+0	1,200E+3
10,635	1,980	0,000	1,980E+0	1,980E+0	1,200E+3
10,835	1,980	0,000	1,980E+0	1,980E+0	1,200E+3
11,036	6,510	2,810	1,980E+0	5,604E-1	1,200E+3
11,235	6,510	2,810	1,980E+0	5,604E-1	1,200E+3
11,435	6,510	2,810	1,980E+0	5,604E-1	1,200E+3
11,636	6,510	2,810	2,334E+0	2,334E+0	1,200E+3
11,837	6,510	2,810	6,510E+0	6,510E+0	1,200E+3
12,039	6,510	2,810	6,510E+0	6,510E+0	1,200E+3
12,239	6,510	2,810	6,510E+0	6,510E+0	1,200E+3
12,439	6,510	2,810	6,510E+0	6,510E+0	1,200E+3
12,640	6,510	2,810	6,510E+0	6,510E+0	1,200E+3
12,840	109,790	53,100	6,510E+0	6,510E+0	1,200E+3
13,041	109,790	53,100	6,510E+0	6,510E+0	1,200E+3
13,240	109,790	53,100	1,098E+2	1,098E+2	1,200E+3
13,442	109,790	53,100	1,098E+2	1,098E+2	1,200E+3
13,641	28,410	23,810	1,098E+2	1,098E+2	1,200E+3
13,843	28,410	23,810	1,098E+2	1,098E+2	1,200E+3
14,043	28,410	23,810	2,841E+1	2,841E+1	1,200E+3
14,245	28,410	23,810	2,841E+1	2,841E+1	1,200E+3
14,447	28,410	23,810	2,841E+1	2,841E+1	1,200E+3
14,646	28,410	23,810	2,841E+1	2,841E+1	1,200E+3
14,848	24,380	20,320	2,841E+1	2,841E+1	1,200E+3
15,048	24,380	20,320	2,841E+1	2,841E+1	1,200E+3
15,249	24,380	20,320	2,438E+1	2,438E+1	1,200E+3
15,449	24,380	20,320	2,438E+1	2,438E+1	1,200E+3
15,649	24,380	20,320	2,438E+1	2,438E+1	1,200E+3
15,850	24,130	20,080	2,438E+1	2,438E+1	1,200E+3
16,051	24,130	20,080	2,413E+1	2,413E+1	1,200E+3
16,251	24,130	20,080	2,413E+1	2,413E+1	1,200E+3
16,450	24,130	20,080	2,413E+1	2,413E+1	1,200E+3
16,651	24,130	20,080	2,413E+1	2,413E+1	1,200E+3
16,852	23,510	19,850	2,413E+1	3,638E+1	1,200E+3
17,052	23,510	19,850	2,413E+1	3,638E+1	1,200E+3
17,251	23,510	19,850	4,184E+1	4,184E+1	1,200E+3
17,452	23,510	19,850	4,184E+1	4,184E+1	1,200E+3
17,651	23,510	19,850	2,351E+1	2,351E+1	1,200E+3
17,851	23,510	19,850	2,351E+1	2,351E+1	1,200E+3
18,052	23,510	19,850	2,351E+1	2,351E+1	1,200E+3
18,252	23,510	19,850	2,351E+1	2,351E+1	1,200E+3
18,451	23,510	19,850	2,351E+1	2,351E+1	1,200E+3
18,652	13,630	10,100	2,351E+1	2,351E+1	1,200E+3
18,852	13,630	10,100	1,363E+1	1,363E+1	1,200E+3
19,053	13,630	10,100	1,363E+1	1,363E+1	1,200E+3
19,254	13,630	10,100	1,363E+1	1,363E+1	1,200E+3
19,454	13,630	10,100	1,363E+1	1,363E+1	1,200E+3
19,655	12,870	9,030	1,363E+1	1,363E+1	1,200E+3
19,857	12,870	9,030	1,287E+1	1,287E+1	1,200E+3
20,056	12,870	9,030	1,287E+1	1,287E+1	1,200E+3
20,257	12,870	9,030	1,287E+1	1,287E+1	1,200E+3
20,458	12,870	9,030	1,287E+1	1,287E+1	1,200E+3
20,659	12,360	8,530	1,287E+1	1,287E+1	1,200E+3
20,861	12,360	8,530	1,236E+1	1,236E+1	1,200E+3
21,061	12,360	8,530	1,236E+1	1,236E+1	1,200E+3
21,261	12,360	8,530	1,236E+1	1,236E+1	1,200E+3
21,463	12,330	8,330	1,236E+1	1,236E+1	1,200E+3
21,663	12,330	8,330	1,236E+1	1,236E+1	1,200E+3
21,864	12,330	8,330	1,233E+1	1,233E+1	1,200E+3
22,063	12,330	8,330	1,233E+1	1,233E+1	1,200E+3
22,264	12,330	8,330	1,233E+1	1,233E+1	1,200E+3
22,463	12,330	8,330	1,233E+1	1,233E+1	1,200E+3
22,665	11,860	8,270	1,233E+1	8,883E+0	1,200E+3
22,864	11,860	8,270	1,233E+1	8,883E+0	1,200E+3
23,064	11,860	8,270	1,241E+1	1,241E+1	1,200E+3
23,264	11,860	8,270	1,241E+1	1,241E+1	1,200E+3
23,466	11,860	8,270	1,186E+1	1,186E+1	1,200E+3
23,668	11,860	8,270	1,186E+1	1,186E+1	1,200E+3
23,870	11,860	8,270	1,186E+1	1,186E+1	1,200E+3
24,070	11,860	8,270	1,186E+1	1,186E+1	1,200E+3
24,271	11,860	8,270	1,186E+1	1,186E+1	1,200E+3
24,472	10,940	8,220	1,186E+1	1,186E+1	1,200E+3
24,672	10,940	8,220	1,186E+1	1,186E+1	1,200E+3
24,873	10,940	8,220	1,094E+1	1,094E+1	1,200E+3
25,073	10,940	8,220	1,094E+1	1,094E+1	1,200E+3
25,274	12,930	8,290	1,094E+1	1,094E+1	1,200E+3
25,474	12,930	8,290	1,293E+1	1,293E+1	1,200E+3
25,674	12,930	8,290	1,293E+1	1,293E+1	1,200E+3
25,874	12,930	8,290	1,293E+1	1,293E+1	1,200E+3
26,074	12,930	8,290	1,293E+1	1,293E+1	1,200E+3
26,275	12,140	8,280	1,293E+1	1,293E+1	1,200E+3
26,476	12,140	8,280	1,293E+1	1,293E+1	1,200E+3
26,675	12,140	8,280	1,214E+1	1,214E+1	1,200E+3
26,877	12,140	8,280	1,214E+1	1,214E+1	1,200E+3
27,077	12,140	8,280	1,214E+1	1,214E+1	1,200E+3
27,279	11,480	8,260	1,214E+1	1,214E+1	1,200E+3
27,480	11,480	8,260	1,148E+1	1,148E+1	1,200E+3
27,679	11,480	8,260	1,148E+1	1,148E+1	1,200E+3
27,880	11,480	8,260	1,148E+1	1,148E+1	1,200E+3
28,079	11,480	8,260	1,148E+1	1,148E+1	1,200E+3
28,279	11,480	8,260	1,148E+1	8,296E+0	1,200E+3
28,481	11,480	8,260	1,148E+1	8,296E+0	1,200E+3
28,680	12,860	8,300	1,189E+1	1,189E+1	1,200E+3
28,880	12,860	8,300	1,189E+1	1,189E+1	1,200E+3
29,082	12,860	8,300	1,286E+1	1,286E+1	1,200E+3
29,282	12,860	8,300	1,286E+1	1,286E+1	1,200E+3
29,482	12,860	8,300	1,286E+1	1,286E+1	1,200E+3
29,684	12,860	8,300	1,286E+1	1,286E+1	1,200E+3
29,884	12,860	8,300	1,286E+1	1,286E+1	1,200E+3
30,084	12,080	8,300	1,286E+1	1,286E+1	1,200E+3
30,285	12,080	8,300	1,286E+1	1,286E+1	1,200E+3
30,484	12,080	8,300	1,208E+1	1,208E+1	1,200E+3
30,684	12,080	8,300	1,208E+1	1,208E+1	1,200E+3
30,885	12,080	8,300	1,208E+1	1,208E+1	1,200E+3
31,085	11,590	8,280	1,208E+1	1,208E+1	1,200E+3
31,286	11,590	8,280	1,159E+1	1,159E+1	1,200E+3
31,487	11,590	8,280	1,159E+1	1,159E+1	1,200E+3
31,687	11,590	8,280	1,159E+1	1,159E+1	1,200E+3
31,887	11,590	8,280	1,159E+1	1,159E+1	1,200E+3
32,087	11,630	8,280	1,159E+1	1,159E+1	1,200E+3
32,287	11,630	8,280	1,163E+1	1,163E+1	1,200E+3
32,488	11,630	8,280	1,163E+1	1,163E+1	1,200E+3
32,688	11,630	8,280	1,163E+1	1,163E+1	1,200E+3
32,889	11,630	8,280	1,163E+1	1,163E+1	1,200E+3
33,090	12,190	8,300	1,163E+1	1,163E+1	1,200E+3
33,289	12,190	8,300	1,219E+1	1,219E+1	1,200E+3
33,489	12,190	8,300	1,219E+1	1,219E+1	1,200E+3
33,689	12,190	8,300	1,219E+1	1,219E+1	1,200E+3
33,890	12,190	8,300	1,219E+1	1,219E+1	1,200E+3
34,089	12,140	8,270	1,219E+1	8,306E+0	1,200E+3
34,289	12,140	8,270	1,219E+1	8,306E+0	1,200E+3
34,490	12,140	8,270	1,188E+1	1,188E+1	1,200E+3
34,690	12,140	8,270	1,188E+1	1,188E+1	1,200E+3
34,891	12,140	8,270	1,214E+1	1,214E+1	1,200E+3
35,091	12,140	8,270	1,214E+1	1,214E+1	1,200E+3
35,290	12,140	8,270	1,214E+1	1,214E+1	1,200E+3
35,492	12,140	8,270	1,214E+1	1,214E+1	1,200E+3
35,692	12,140	8,270	1,214E+1	1,214E+1	1,200E+3
35,891	12,040	8,290	1,214E+1	1,214E+1	1,200E+3
36,091	12,040	8,290	1,204E+1	1,204E+1	1,200E+3
36,293	12,040	8,290	1,204E+1	1,204E+1	1,200E+3
36,493	12,040	8,290	1,204E+1	1,204E+1	1,200E+3
36,693	12,420	8,310	1,204E+1	1,204E+1	1,200E+3
36,892	12,420	8,310	1,204E+1	1,204E+1	1,200E+3
37,094	12,420	8,310	1,242E+1	1,242E+1	1,200E+3
37,295	12,420	8,310	1,242E+1	1,242E+1	1,200E+3
37,495	12,420	8,310	1,242E+1	1,242E+1	1,200E+3
37,695	12,130	8,270	1,242E+1	1,242E+1	1,200E+3
37,895	12,130	8,270	1,242E+1	1,242E+1	1,200E+3
38,095	12,130	8,270	1,213E+1	1,213E+1	1,200E+3
38,296	12,130	8,270	1,213E+1	1,213E+1	1,200E+3
38,499	12,130	8,270	1,213E+1	1,213E+1	1,200E+3
38,698	12,280	8,280	1,213E+1	1,213E+1	1,200E+3
38,900	12,280	8,280	1,213E+1	1,213E+1	1,200E+3
39,100	12,280	8,280	1,228E+1	1,228E+1	1,200E+3
39,301	12,280	8,280	1,228E+1	1,228E+1	1,200E+3
39,501	12,280	8,280	1,228E+1	1,228E+1	1,200E+3
39,701	11,670	8,230	1,228E+1	8,295E+0	1,200E+3
39,901	11,670	8,230	1,228E+1	8,295E+0	1,200E+3
40,102	11,670	8,230	1,228E+1	8,295E+0	1,200E+3
40,304	11,670	8,230	1,193E+1	1,193E+1	1,200E+3
40,504	11,670	8,230	1,167E+1	1,167E+1	1,200E+3
40,705	11,670	8,230	1,167E+1	1,167E+1	1,200E+3
40,907	11,670	8,230	1,167E+1	1,167E+1	1,200E+3
41,107	11,670	8,230	1,167E+1	1,167E+1	1,200E+3
41,308	11,670	8,230	1,167E+1	1,167E+1	1,200E+3
41,510	11,670	8,230	1,167E+1	1,167E+1	1,200E+3
41,710	12,440	8,280	1,167E+1	1,167E+1	1,200E+3
41,911	12,440	8,280	1,244E+1	1,244E+1	1,200E+3
42,111	12,440	8,280	1,244E+1	1,244E+1	1,200E+3
42,310	12,440	8,280	1,244E+1	1,244E+1	1,200E+3
42,512	12,440	8,280	1,244E+1	1,244E+1	1,200E+3
42,714	11,640	8,270	1,244E+1	1,244E+1	1,200E+3
42,914	11,640	8,270	1,164E+1	1,164E+1	1,200E+3
43,114	11,640	8,270	1,164E+1	1,164E+1	1,200E+3
43,315	11,640	8,270	1,164E+1	1,164E+1	1,200E+3
43,515	11,830	8,250	1,164E+1	1,164E+1	1,200E+3
43,715	11,830	8,250	1,164E+1	1,164E+1	1,200E+3
43,915	11,830	8,250	1,183E+1	1,183E+1	1,200E+3
44,116	11,830	8,250	1,183E+1	1,183E+1	1,200E+3
44,317	11,830	8,250	1,183E+1	1,183E+1	1,200E+3
44,518	11,960	8,240	1,183E+1	1,183E+1	1,200E+3
44,718	11,960	8,240	1,183E+1	1,183E+1	1,200E+3
44,919	11,960	8,240	1,196E+1	1,196E+1	1,200E+3
45,118	11,960	8,240	1,196E+1	1,196E+1	1,200E+3
45,319	11,960	8,240	1,196E+1	1,196E+1	1,200E+3
45,522	11,480	8,240	1,196E+1	8,280E+0	1,200E+3
45,724	11,480	8,240	1,196E+1	8,280E+0	1,200E+3
45,925	11,480	8,240	1,196E+1	8,280E+0	1,200E+3
46,124	11,480	8,240	1,206E+1	1,206E+1	1,200E+3
46,324	11,480	8,240	1,148E+1	1,148E+1	1,200E+3
46,525	11,480	8,240	1,148E+1	1,148E+1	1,200E+3
46,726	11,480	8,240	1,148E+1	1,148E+1	1,200E+3
46,926	11,480	8,240	1,148E+1	1,148E+1	1,200E+3
47,127	11,480	8,240	1,148E+1	1,148E+1	1,200E+3
47,328	11,660	8,230	1,148E+1	1,148E+1	1,200E+3
47,529	11,660	8,230	1,148E+1	1,148E+1	1,200E+3
47,729	11,660	8,230	1,166E+1	1,166E+1	1,200E+3
47,929	11,660	8,230	1,166E+1	1,166E+1	1,200E+3
48,130	11,660	8,230	1,166E+1	1,166E+1	1,200E+3
48,329	11,660	8,230	1,166E+1	1,166E+1	1,200E+3
48,530	11,780	8,260	1,166E+1	1,166E+1	1,200E+3
48,729	11,780	8,260	1,166E+1	1,166E+1	1,200E+3
48,930	11,780	8,260	1,178E+1	1,178E+1	1,200E+3
49,130	11,780	8,260	1,178E+1	1,178E+1	1,200E+3
49,330	11,940	8,270	1,178E+1	1,178E+1	1,200E+3
49,530	11,940	8,270	1,178E+1	1,178E+1	1,200E+3
49,731	11,940	8,270	1,194E+1	1,194E+1	1,200E+3
49,931	11,940	8,270	1,194E+1	1,194E+1	1,200E+3
50,131	11,940	8,270	1,194E+1	1,194E+1	1,200E+3
50,332	11,940	8,270	1,194E+1	1,194E+1	1,200E+3
50,532	12,210	8,250	1,194E+1	1,194E+1	1,200E+3
50,732	12,210	8,250	1,194E+1	1,194E+1	1,200E+3
50,934	12,210	8,250	1,221E+1	1,221E+1	1,200E+3
51,133	12,210	8,250	1,221E+1	1,221E+1	1,200E+3
51,334	12,300	8,230	1,221E+1	8,266E+0	1,200E+3
51,534	12,300	8,230	1,221E+1	8,266E+0	1,200E+3
51,733	12,300	8,230	1,221E+1	8,266E+0	1,200E+3
51,935	12,300	8,230	1,191E+1	1,191E+1	1,200E+3
52,134	12,300	8,230	1,230E+1	1,230E+1	1,200E+3
52,334	12,300	8,230	1,230E+1	1,230E+1	1,200E+3
52,534	12,300	8,230	1,230E+1	1,230E+1	1,200E+3
52,734	12,300	8,230	1,230E+1	1,230E+1	1,200E+3
52,935	12,300	8,230	1,230E+1	1,230E+1	1,200E+3
53,134	10,710	8,220	1,230E+1	1,230E+1	1,200E+3
53,335	10,710	8,220	1,071E+1	1,071E+1	1,200E+3
53,537	10,710	8,220	1,071E+1	1,071E+1	1,200E+3
53,737	10,710	8,220	1,071E+1	1,071E+1	1,200E+3
53,937	10,710	8,220	1,071E+1	1,071E+1	1,200E+3
54,138	11,840	8,260	1,071E+1	1,071E+1	1,200E+3
54,339	11,840	8,260	1,184E+1	1,184E+1	1,200E+3
54,539	11,840	8,260	1,184E+1	1,184E+1	1,200E+3
54,739	11,840	8,260	1,184E+1	1,184E+1	1,200E+3
54,941	11,840	8,260	1,184E+1	1,184E+1	1,200E+3
55,141	12,040	8,260	1,184E+1	1,184E+1	1,200E+3
55,343	12,040	8,260	1,204E+1	1,204E+1	1,200E+3
55,544	12,040	8,260	1,204E+1	1,204E+1	1,200E+3
55,743	12,040	8,260	1,204E+1	1,204E+1	1,200E+3
55,946	12,040	8,260	1,204E+1	1,204E+1	1,200E+3
56,145	11,170	8,210	1,204E+1	1,204E+1	1,200E+3
56,346	11,170	8,210	1,117E+1	1,117E+1	1,200E+3
56,546	11,170	8,210	1,117E+1	1,117E+1	1,200E+3
56,745	11,170	8,210	1,117E+1	1,117E+1	1,200E+3
56,946	11,170	8,210	1,117E+1	1,117E+1	1,200E+3
57,146	11,770	8,220	1,117E+1	8,249E+0	1,200E+3
57,346	11,770	8,220	1,117E+1	8,249E+0	1,200E+3
57,547	11,770	8,220	1,162E+1	1,162E+1	1,200E+3
57,748	11,770	8,220	1,162E+1	1,162E+1	1,200E+3
57,948	11,770	8,220	1,177E+1	1,177E+1	1,200E+3
58,148	11,770	8,220	1,177E+1	1,177E+1	1,200E+3
58,348	11,770	8,220	1,177E+1	1,177E+1	1,200E+3
58,550	11,770	8,220	1,177E+1	1,177E+1	1,200E+3
58,750	11,890	8,200	1,177E+1	1,177E+1	1,200E+3
58,949	11,890	8,200	1,177E+1	1,177E+1	1,200E+3
59,150	11,890	8,200	1,189E+1	1,189E+1	1,200E+3
59,350	11,890	8,200	1,189E+1	1,189E+1	1,200E+3
59,550	11,890	8,200	1,189E+1	1,189E+1	1,200E+3
59,751	12,280	8,180	1,189E+1	1,189E+1	1,200E+3
59,952	12,280	8,180	1,189E+1	1,189E+1	1,200E+3
60,153	12,280	8,180	1,228E+1	1,228E+1	1,200E+3
60,354	12,280	8,180	1,228E+1	1,228E+1	1,200E+3
60,555	12,280	8,180	1,228E+1	1,228E+1	1,200E+3
60,755	12,280	8,180	1,228E+1	1,228E+1	1,200E+3
60,957	12,090	8,230	1,228E+1	1,228E+1	1,200E+3
61,156	12,090	8,230	1,209E+1	1,209E+1	1,200E+3
61,358	12,090	8,230	1,209E+1	1,209E+1	1,200E+3
61,560	12,090	8,230	1,209E+1	1,209E+1	1,200E+3
61,761	12,090	8,230	1,209E+1	1,209E+1	1,200E+3
61,961	11,350	8,210	1,209E+1	1,209E+1	1,200E+3
62,161	11,350	8,210	1,209E+1	1,209E+1	1,200E+3
62,361	11,350	8,210	1,135E+1	1,135E+1	1,200E+3
62,560	11,350	8,210	1,135E+1	1,135E+1	1,200E+3
62,761	11,350	8,210	1,135E+1	1,135E+1	1,200E+3
62,962	11,330	8,220	1,135E+1	8,236E+0	1,200E+3
63,162	11,330	8,220	1,135E+1	8,236E+0	1,200E+3
63,362	11,330	8,220	1,135E+1	8,236E+0	1,200E+3
63,564	11,330	8,220	1,178E+1	1,178E+1	1,200E+3
63,764	11,330	8,220	1,133E+1	1,133E+1	1,200E+3
63,964	11,330	8,220	1,133E+1	1,133E+1	1,200E+3
64,165	11,330	8,220	1,133E+1	1,133E+1	1,200E+3
64,367	11,330	8,220	1,133E+1	1,133E+1	1,200E+3
64,567	11,330	8,220	1,133E+1	1,133E+1	1,200E+3
64,768	11,330	8,220	1,133E+1	1,133E+1	1,200E+3
64,968	11,450	8,210	1,133E+1	1,133E+1	1,200E+3
65,168	11,450	8,210	1,145E+1	1,145E+1	1,200E+3
65,369	11,450	8,210	1,145E+1	1,145E+1	1,200E+3
65,569	11,450	8,210	1,145E+1	1,145E+1	1,200E+3
65,770	11,450	8,210	1,145E+1	1,145E+1	1,200E+3
65,969	11,650	8,230	1,145E+1	1,145E+1	1,200E+3
66,169	11,650	8,230	1,145E+1	1,145E+1	1,200E+3
66,371	11,650	8,230	1,165E+1	1,165E+1	1,200E+3
66,573	11,650	8,230	1,165E+1	1,165E+1	1,200E+3
66,773	11,460	8,220	1,165E+1	1,165E+1	1,200E+3
66,974	11,460	8,220	1,146E+1	1,146E+1	1,200E+3
67,175	11,460	8,220	1,146E+1	1,146E+1	1,200E+3
67,374	11,460	8,220	1,146E+1	1,146E+1	1,200E+3
67,574	11,460	8,220	1,146E+1	1,146E+1	1,200E+3
67,775	11,460	8,230	1,146E+1	1,146E+1	1,200E+3
67,975	11,460	8,230	1,146E+1	1,146E+1	1,200E+3
68,175	11,460	8,230	1,146E+1	1,146E+1	1,200E+3
68,375	11,460	8,230	1,146E+1	1,146E+1	1,200E+3
68,576	11,460	8,230	1,146E+1	1,146E+1	1,200E+3
68,777	12,030	8,220	1,146E+1	8,250E+0	1,200E+3
68,979	12,030	8,220	1,146E+1	8,250E+0	1,200E+3
69,178	12,030	8,220	1,146E+1	8,250E+0	1,200E+3
69,379	12,030	8,220	1,185E+1	1,185E+1	1,200E+3
69,579	12,030	8,220	1,203E+1	1,203E+1	1,200E+3
69,780	12,030	8,220	1,203E+1	1,203E+1	1,200E+3
69,982	12,030	8,220	1,203E+1	1,203E+1	1,200E+3
70,181	12,030	8,220	1,203E+1	1,203E+1	1,200E+3
70,382	12,030	8,220	1,203E+1	1,203E+1	1,200E+3
70,583	11,330	8,200	1,203E+1	1,203E+1	1,200E+3
70,784	11,330	8,200	1,203E+1	1,203E+1	1,200E+3
70,986	11,330	8,200	1,133E+1	1,133E+1	1,200E+3
71,185	11,330	8,200	1,133E+1	1,133E+1	1,200E+3
71,386	11,330	8,200	1,133E+1	1,133E+1	1,200E+3
71,587	11,930	8,210	1,133E+1	1,133E+1	1,200E+3
71,788	11,930	8,210	1,133E+1	1,133E+1	1,200E+3
71,989	11,930	8,210	1,193E+1	1,193E+1	1,200E+3
72,189	11,930	8,210	1,193E+1	1,193E+1	1,200E+3
72,389	11,930	8,210	1,193E+1	1,193E+1	1,200E+3
72,590	11,960	8,210	1,193E+1	1,193E+1	1,200E+3
72,791	11,960	8,210	1,193E+1	1,193E+1	1,200E+3
72,991	11,960	8,210	1,196E+1	1,196E+1	1,200E+3
73,191	11,960	8,210	1,196E+1	1,196E+1	1,200E+3
73,392	11,630	8,210	1,196E+1	1,196E+1	1,200E+3
73,593	11,630	8,210	1,196E+1	1,196E+1	1,200E+3
73,794	11,630	8,210	1,163E+1	1,163E+1	1,200E+3
73,994	11,630	8,210	1,163E+1	1,163E+1	1,200E+3
74,194	11,630	8,210	1,163E+1	1,163E+1	1,200E+3
74,394	11,630	8,210	1,163E+1	1,163E+1	1,200E+3
74,595	11,630	8,210	1,163E+1	1,163E+1	1,200E+3
74,796	11,630	8,210	1,163E+1	8,227E+0	1,200E+3
74,996	11,630	8,210	1,163E+1	8,227E+0	1,200E+3
75,197	11,940	8,200	1,191E+1	1,191E+1	1,200E+3
75,397	11,940	8,200	1,191E+1	1,191E+1	1,200E+3
75,599	11,940	8,200	1,194E+1	1,194E+1	1,200E+3
75,800	11,940	8,200	1,194E+1	1,194E+1	1,200E+3
76,002	11,940	8,200	1,194E+1	1,194E+1	1,200E+3
76,202	11,940	8,200	1,194E+1	1,194E+1	1,200E+3
76,402	11,940	8,200	1,194E+1	1,194E+1	1,200E+3
76,603	30,170	26,460	1,194E+1	1,194E+1	1,200E+3
76,804	30,170	26,460	1,194E+1	1,194E+1	1,200E+3
77,004	30,170	26,460	3,017E+1	3,017E+1	1,200E+3
77,204	30,170	26,460	3,017E+1	3,017E+1	1,200E+3
77,404	30,170	26,460	3,017E+1	3,017E+1	1,200E+3
77,606	31,840	27,710	3,017E+1	3,017E+1	1,200E+3
77,805	31,840	27,710	3,017E+1	3,017E+1	1,200E+3
78,008	31,840	27,710	3,184E+1	3,184E+1	1,200E+3
78,208	31,840	27,710	3,184E+1	3,184E+1	1,200E+3
78,408	31,840	27,710	3,184E+1	3,184E+1	1,200E+3
78,610	33,300	28,640	3,184E+1	3,184E+1	1,200E+3
78,810	33,300	28,640	3,184E+1	3,184E+1	1,200E+3
79,010	33,300	28,640	3,330E+1	3,330E+1	1,200E+3
79,210	33,300	28,640	3,330E+1	3,330E+1	1,200E+3
79,410	33,300	28,640	3,330E+1	3,330E+1	1,200E+3
79,611	32,730	28,690	3,330E+1	3,330E+1	1,200E+3
79,812	32,730	28,690	3,273E+1	3,273E+1	1,200E+3
80,012	32,730	28,690	3,273E+1	3,273E+1	1,200E+3
80,212	32,730	28,690	3,273E+1	3,273E+1	1,200E+3
80,412	32,730	28,690	3,273E+1	3,273E+1	1,200E+3
80,613	32,220	28,710	3,273E+1	2,810E+1	1,200E+3
80,814	32,220	28,710	3,273E+1	2,810E+1	1,200E+3
81,016	32,220	28,710	3,261E+1	3,261E+1	1,200E+3
81,216	32,220	28,710	3,261E+1	3,261E+1	1,200E+3
81,418	32,220	28,710	3,222E+1	3,222E+1	1,200E+3
81,620	32,220	28,710	3,222E+1	3,222E+1	1,200E+3
81,821	32,220	28,710	3,222E+1	3,222E+1	1,200E+3
82,020	32,220	28,710	3,222E+1	3,222E+1	1,200E+3
82,222	32,220	28,710	3,222E+1	3,222E+1	1,200E+3
82,422	33,120	28,770	3,222E+1	3,222E+1	1,200E+3
82,623	33,120	28,770	3,222E+1	3,222E+1	1,200E+3
82,822	33,120	28,770	3,312E+1	3,312E+1	1,200E+3
83,022	33,120	28,770	3,312E+1	3,312E+1	1,200E+3
83,222	33,110	28,760	3,312E+1	3,312E+1	1,200E+3
83,422	33,110	28,760	3,312E+1	3,312E+1	1,200E+3
83,624	33,110	28,760	3,311E+1	3,311E+1	1,200E+3
83,824	33,110	28,760	3,311E+1	3,311E+1	1,200E+3
84,026	33,110	28,760	3,311E+1	3,311E+1	1,200E+3
84,228	33,460	28,750	3,311E+1	3,311E+1	1,200E+3
84,428	33,460	28,750	3,311E+1	3,311E+1	1,200E+3
84,629	33,460	28,750	3,311E+1	3,311E+1	1,200E+3
84,829	33,460	28,750	3,346E+1	3,346E+1	1,200E+3
85,030	33,460	28,750	3,346E+1	3,346E+1	1,200E+3
85,230	33,460	28,750	3,346E+1	3,346E+1	1,200E+3
85,429	33,610	28,640	3,346E+1	3,346E+1	1,200E+3
85,629	33,610	28,640	3,346E+1	3,346E+1	1,200E+3
85,829	33,610	28,640	3,361E+1	3,361E+1	1,200E+3
86,030	33,610	28,640	3,361E+1	3,361E+1	1,200E+3
86,231	33,610	28,640	3,361E+1	3,361E+1	1,200E+3
86,430	33,690	28,720	3,361E+1	2,879E+1	1,200E+3
86,631	33,690	28,720	3,361E+1	2,879E+1	1,200E+3
86,831	33,690	28,720	3,361E+1	2,879E+1	1,200E+3
87,031	33,690	28,720	3,320E+1	3,320E+1	1,200E+3
87,233	33,690	28,720	3,320E+1	3,320E+1	1,200E+3
87,432	33,690	28,720	3,369E+1	3,369E+1	1,200E+3
87,632	33,690	28,720	3,369E+1	3,369E+1	1,200E+3
87,832	33,690	28,720	3,369E+1	3,369E+1	1,200E+3
88,032	33,690	28,720	3,369E+1	3,369E+1	1,200E+3
88,232	33,690	28,720	3,369E+1	3,369E+1	1,200E+3
88,434	33,460	28,640	3,369E+1	3,369E+1	1,200E+3
88,635	33,460	28,640	3,369E+1	3,369E+1	1,200E+3
88,836	33,460	28,640	3,346E+1	3,346E+1	1,200E+3
89,036	33,130	28,680	3,346E+1	3,346E+1	1,200E+3
89,237	33,130	28,680	3,346E+1	3,346E+1	1,200E+3
89,438	33,130	28,680	3,313E+1	3,313E+1	1,200E+3
89,639	33,130	28,680	3,313E+1	3,313E+1	1,200E+3
89,839	33,130	28,680	3,313E+1	3,313E+1	1,200E+3
90,039	33,130	28,680	3,313E+1	3,313E+1	1,200E+3
90,241	33,200	28,650	3,313E+1	3,313E+1	1,200E+3
90,441	33,200	28,650	3,313E+1	3,313E+1	1,200E+3
90,641	33,200	28,650	3,320E+1	3,320E+1	1,200E+3
90,841	33,200	28,650	3,320E+1	3,320E+1	1,200E+3
91,044	33,200	28,650	3,320E+1	3,320E+1	1,200E+3
91,244	33,390	28,670	3,320E+1	3,320E+1	1,200E+3
91,444	33,390	28,670	3,320E+1	3,320E+1	1,200E+3
91,644	33,390	28,670	3,339E+1	3,339E+1	1,200E+3
91,844	33,390	28,670	3,339E+1	3,339E+1	1,200E+3
92,046	33,390	28,670	3,339E+1	3,339E+1	1,200E+3
92,247	33,130	28,640	3,339E+1	2,872E+1	1,200E+3
92,447	33,130	28,640	3,339E+1	2,872E+1	1,200E+3
92,647	33,130	28,640	3,299E+1	3,299E+1	1,200E+3
92,847	33,130	28,640	3,299E+1	3,299E+1	1,200E+3
93,047	33,130	28,640	3,313E+1	3,313E+1	1,200E+3
93,247	33,130	28,640	3,313E+1	3,313E+1	1,200E+3
93,449	33,130	28,640	3,313E+1	3,313E+1	1,200E+3
93,651	33,130	28,640	3,313E+1	3,313E+1	1,200E+3
93,851	33,130	28,640	3,313E+1	3,313E+1	1,200E+3
94,052	33,030	28,570	3,313E+1	3,313E+1	1,200E+3
94,251	33,030	28,570	3,313E+1	3,313E+1	1,200E+3
94,451	33,030	28,570	3,303E+1	3,303E+1	1,200E+3
94,652	33,030	28,570	3,303E+1	3,303E+1	1,200E+3
94,853	32,420	28,630	3,303E+1	3,303E+1	1,200E+3
95,054	32,420	28,630	3,303E+1	3,303E+1	1,200E+3
95,253	32,420	28,630	3,242E+1	3,242E+1	1,200E+3
95,454	32,420	28,630	3,242E+1	3,242E+1	1,200E+3
95,656	32,420	28,630	3,242E+1	3,242E+1	1,200E+3
95,856	33,070	28,600	3,242E+1	3,242E+1	1,200E+3
96,057	33,070	28,600	3,242E+1	3,242E+1	1,200E+3
96,258	33,070	28,600	3,307E+1	3,307E+1	1,200E+3
96,458	33,070	28,600	3,307E+1	3,307E+1	1,200E+3
96,658	33,070	28,600	3,307E+1	3,307E+1	1,200E+3
96,857	33,380	28,580	3,307E+1	3,307E+1	1,200E+3
97,058	33,380	28,580	3,307E+1	3,307E+1	1,200E+3
97,258	33,380	28,580	3,338E+1	3,338E+1	1,200E+3
97,461	33,380	28,580	3,338E+1	3,338E+1	1,200E+3
97,662	33,380	28,580	3,338E+1	3,338E+1	1,200E+3
97,861	33,380	28,580	3,338E+1	3,338E+1	1,200E+3
98,062	33,420	28,630	3,338E+1	2,865E+1	1,200E+3
98,262	33,420	28,630	3,338E+1	2,865E+1	1,200E+3
98,463	33,420	28,630	3,296E+1	3,296E+1	1,200E+3
98,664	33,420	28,630	3,296E+1	3,296E+1	1,200E+3
98,865	33,420	28,630	3,342E+1	3,342E+1	1,200E+3
99,064	33,420	28,630	3,342E+1	3,342E+1	1,200E+3
99,264	33,420	28,630	3,342E+1	3,342E+1	1,200E+3
99,465	33,420	28,630	3,342E+1	3,342E+1	1,200E+3
99,665	33,420	28,630	3,342E+1	3,342E+1	1,200E+3
99,866	32,600	28,520	3,342E+1	3,342E+1	1,200E+3
100,065	32,600	28,520	3,342E+1	3,342E+1	1,200E+3
100,267	32,600	28,520	3,260E+1	3,260E+1	1,200E+3
100,467	32,600	28,520	3,260E+1	3,260E+1	1,200E+3
100,669	32,170	28,600	3,260E+1	3,260E+1	1,200E+3
100,869	32,170	28,600	3,217E+1	3,217E+1	1,200E+3
101,069	32,170	28,600	3,217E+1	3,217E+1	1,200E+3
101,269	32,170	28,600	3,217E+1	3,217E+1	1,200E+3
101,471	32,170	28,600	3,217E+1	3,217E+1	1,200E+3
101,673	32,910	28,520	3,217E+1	3,217E+1	1,200E+3
101,872	32,910	28,520	3,217E+1	3,217E+1	1,200E+3
102,073	32,910	28,520	3,291E+1	3,291E+1	1,200E+3
102,276	32,910	28,520	3,291E+1	3,291E+1	1,200E+3
102,476	32,910	28,520	3,291E+1	3,291E+1	1,200E+3
102,677	33,150	28,560	3,291E+1	3,291E+1	1,200E+3
102,878	33,150	28,560	3,291E+1	3,291E+1	1,200E+3
103,077	33,150	28,560	3,315E+1	3,315E+1	1,350E+3
103,289	33,150	28,560	3,315E+1	3,315E+1	1,350E+3
103,491	33,150	28,560	3,315E+1	3,315E+1	1,350E+3
103,692	33,000	28,730	3,315E+1	2,866E+1	1,350E+3
103,893	33,000	28,730	3,315E+1	2,866E+1	1,350E+3
104,092	33,000	28,730	3,315E+1	2,866E+1	1,350E+3
104,292	33,000	28,730	3,317E+1	3,317E+1	1,350E+3
104,492	33,000	28,730	3,300E+1	3,300E+1	1,350E+3
104,694	33,000	28,730	3,300E+1	3,300E+1	1,350E+3
104,895	33,000	28,730	3,300E+1	3,300E+1	1,350E+3
105,094	33,000	28,730	3,300E+1	3,300E+1	1,350E+3
105,295	33,000	28,730	3,300E+1	3,300E+1	1,350E+3
105,497	33,000	28,730	3,300E+1	3,300E+1	1,350E+3
105,697	35,450	31,560	3,300E+1	3,300E+1	1,350E+3
105,898	35,450	31,560	3,545E+1	3,545E+1	1,350E+3
106,097	35,450	31,560	3,545E+1	3,545E+1	1,350E+3
106,298	37,010	32,170	3,545E+1	3,545E+1	1,350E+3
106,498	37,010	32,170	3,545E+1	3,545E+1	1,350E+3
106,698	37,010	32,170	3,701E+1	3,701E+1	1,350E+3
106,899	37,010	32,170	3,701E+1	3,701E+1	1,350E+3
107,100	37,010	32,170	3,701E+1	3,701E+1	1,350E+3
107,300	37,010	32,170	3,701E+1	3,701E+1	1,350E+3
107,500	36,550	32,350	3,701E+1	3,701E+1	1,350E+3
107,700	36,550	32,350	3,655E+1	3,655E+1	1,350E+3
107,901	36,550	32,350	3,655E+1	3,655E+1	1,350E+3
108,100	36,550	32,350	3,655E+1	3,655E+1	1,350E+3
108,302	36,550	32,350	3,655E+1	3,655E+1	1,350E+3
108,503	36,000	32,380	3,655E+1	3,655E+1	1,350E+3
108,702	36,000	32,380	3,600E+1	3,600E+1	1,350E+3
108,902	36,000	32,380	3,600E+1	3,600E+1	1,350E+3
109,103	36,000	32,380	3,600E+1	3,600E+1	1,350E+3
109,303	36,000	32,380	3,600E+1	3,600E+1	1,350E+3
109,502	36,410	32,380	3,600E+1	3,222E+1	1,350E+3
109,702	36,410	32,380	3,600E+1	3,222E+1	1,350E+3
109,904	36,410	32,380	3,654E+1	3,654E+1	1,350E+3
110,104	36,410	32,380	3,654E+1	3,654E+1	1,350E+3
110,304	36,410	32,380	3,641E+1	3,641E+1	1,350E+3
110,505	36,410	32,380	3,641E+1	3,641E+1	1,350E+3
110,705	36,410	32,380	3,641E+1	3,641E+1	1,350E+3
110,906	36,410	32,380	3,641E+1	3,641E+1	1,350E+3
111,108	36,410	32,380	3,641E+1	3,641E+1	1,350E+3
111,309	36,380	32,380	3,641E+1	3,641E+1	1,350E+3
111,509	36,380	32,380	3,641E+1	3,641E+1	1,350E+3
111,709	36,380	32,380	3,638E+1	3,638E+1	1,350E+3
111,909	36,380	32,380	3,638E+1	3,638E+1	1,350E+3
112,109	36,420	32,430	3,638E+1	3,638E+1	1,350E+3
112,310	36,420	32,430	3,638E+1	3,638E+1	1,350E+3
112,511	36,420	32,430	3,642E+1	3,642E+1	1,350E+3
112,710	36,420	32,430	3,642E+1	3,642E+1	1,350E+3
112,912	36,420	32,430	3,642E+1	3,642E+1	1,350E+3
113,111	36,290	32,360	3,642E+1	3,642E+1	1,350E+3
113,314	36,290	32,360	3,642E+1	3,642E+1	1,350E+3
113,515	36,290	32,360	3,629E+1	3,629E+1	1,350E+3
113,717	36,290	32,360	3,629E+1	3,629E+1	1,350E+3
113,917	36,290	32,360	3,629E+1	3,629E+1	1,350E+3
114,119	36,590	32,320	3,629E+1	3,629E+1	1,350E+3
114,321	36,590	32,320	3,629E+1	3,629E+1	1,350E+3
114,520	36,590	32,320	3,659E+1	3,659E+1	1,350E+3
114,720	36,590	32,320	3,659E+1	3,659E+1	1,350E+3
114,922	36,590	32,320	3,659E+1	3,659E+1	1,350E+3
115,123	37,530	32,410	3,659E+1	3,243E+1	1,350E+3
115,325	37,530	32,410	3,659E+1	3,243E+1	1,350E+3
115,524	37,530	32,410	3,659E+1	3,243E+1	1,350E+3
115,725	37,530	32,410	3,670E+1	3,670E+1	1,350E+3
115,925	37,530	32,410	3,670E+1	3,670E+1	1,350E+3
116,126	37,530	32,410	3,753E+1	3,753E+1	1,350E+3
116,326	37,530	32,410	3,753E+1	3,753E+1	1,350E+3
116,526	37,530	32,410	3,753E+1	3,753E+1	1,350E+3
116,726	37,530	32,410	3,753E+1	3,753E+1	1,350E+3
116,928	37,530	32,410	3,753E+1	3,753E+1	1,350E+3
117,129	36,290	32,330	3,753E+1	3,753E+1	1,350E+3
117,329	36,290	32,330	3,753E+1	3,753E+1	1,350E+3
117,531	36,290	32,330	3,629E+1	3,629E+1	1,350E+3
117,732	36,290	32,330	3,629E+1	3,629E+1	1,350E+3
117,931	36,290	32,330	3,629E+1	3,629E+1	1,350E+3
118,131	36,240	32,320	3,629E+1	3,629E+1	1,350E+3
118,333	36,240	32,320	3,629E+1	3,629E+1	1,350E+3
118,532	36,240	32,320	3,624E+1	3,624E+1	1,350E+3
118,733	36,240	32,320	3,624E+1	3,624E+1	1,350E+3
118,933	36,870	32,340	3,624E+1	3,624E+1	1,350E+3
119,134	36,870	32,340	3,624E+1	3,624E+1	1,350E+3
119,335	36,870	32,340	3,687E+1	3,687E+1	1,350E+3
119,536	36,870	32,340	3,687E+1	3,687E+1	1,350E+3
119,737	36,870	32,340	3,687E+1	3,687E+1	1,350E+3
119,938	36,930	32,310	3,687E+1	3,687E+1	1,350E+3
120,138	36,930	32,310	3,687E+1	3,687E+1	1,350E+3
120,339	36,930	32,310	3,693E+1	3,693E+1	1,350E+3
120,540	36,930	32,310	3,693E+1	3,693E+1	1,350E+3
120,741	36,930	32,310	3,693E+1	3,693E+1	1,350E+3
120,940	36,550	32,300	3,693E+1	3,238E+1	1,350E+3
121,140	36,550	32,300	3,693E+1	3,238E+1	1,350E+3
121,340	36,550	32,300	3,693E+1	3,238E+1	1,350E+3
121,541	36,550	32,300	3,667E+1	3,667E+1	1,350E+3
121,742	36,550	32,300	3,655E+1	3,655E+1	1,350E+3
121,941	36,550	32,300	3,655E+1	3,655E+1	1,350E+3
122,143	36,550	32,300	3,655E+1	3,655E+1	1,350E+3
122,342	36,550	32,300	3,655E+1	3,655E+1	1,350E+3
122,543	36,550	32,300	3,655E+1	3,655E+1	1,350E+3
122,743	36,550	32,300	3,655E+1	3,655E+1	1,350E+3
122,944	37,590	32,320	3,655E+1	3,655E+1	1,350E+3
123,144	37,590	32,320	3,759E+1	3,759E+1	1,350E+3
123,344	37,590	32,320	3,759E+1	3,759E+1	1,350E+3
123,545	37,590	32,320	3,759E+1	3,759E+1	1,350E+3
123,744	37,590	32,320	3,759E+1	3,759E+1	1,350E+3
123,944	36,080	32,290	3,759E+1	3,759E+1	1,350E+3
124,144	36,080	32,290	3,759E+1	3,759E+1	1,350E+3
124,346	36,080	32,290	3,608E+1	3,608E+1	1,350E+3
124,547	36,080	32,290	3,608E+1	3,608E+1	1,350E+3
124,747	36,120	32,300	3,608E+1	3,608E+1	1,350E+3
124,948	36,120	32,300	3,612E+1	3,612E+1	1,350E+3
125,147	36,120	32,300	3,612E+1	3,612E+1	1,350E+3
125,347	36,120	32,300	3,612E+1	3,612E+1	1,350E+3
125,548	36,120	32,300	3,612E+1	3,612E+1	1,350E+3
125,748	36,140	32,220	3,612E+1	3,612E+1	1,350E+3
125,947	36,140	32,220	3,614E+1	3,614E+1	1,350E+3
126,148	36,140	32,220	3,614E+1	3,614E+1	1,350E+3
126,348	36,140	32,220	3,614E+1	3,614E+1	1,350E+3
126,549	36,140	32,220	3,614E+1	3,614E+1	1,350E+3
126,748	36,140	32,220	3,614E+1	3,235E+1	1,350E+3
126,949	36,140	32,220	3,614E+1	3,235E+1	1,350E+3
127,149	36,290	32,330	3,682E+1	3,682E+1	1,350E+3
127,351	36,290	32,330	3,682E+1	3,682E+1	1,350E+3
127,551	36,290	32,330	3,629E+1	3,629E+1	1,350E+3
127,752	36,290	32,330	3,629E+1	3,629E+1	1,350E+3
127,954	36,290	32,330	3,629E+1	3,629E+1	1,350E+3
128,153	36,290	32,330	3,629E+1	3,629E+1	1,350E+3
128,354	36,290	32,330	3,629E+1	3,629E+1	1,350E+3
128,555	36,440	32,300	3,629E+1	3,629E+1	1,350E+3
128,755	36,440	32,300	3,629E+1	3,629E+1	1,350E+3
128,955	36,440	32,300	3,644E+1	3,644E+1	1,350E+3
129,156	36,440	32,300	3,644E+1	3,644E+1	1,350E+3
129,358	36,440	32,300	3,644E+1	3,644E+1	1,350E+3
129,559	36,510	32,270	3,644E+1	3,644E+1	1,350E+3
129,761	36,510	32,270	3,644E+1	3,644E+1	1,350E+3
129,960	36,510	32,270	3,651E+1	3,651E+1	1,350E+3
130,160	36,510	32,270	3,651E+1	3,651E+1	1,350E+3
130,360	36,510	32,270	3,651E+1	3,651E+1	1,350E+3
130,562	36,660	32,200	3,651E+1	3,651E+1	1,350E+3
130,764	36,660	32,200	3,651E+1	3,651E+1	1,350E+3
130,965	36,660	32,200	3,666E+1	3,666E+1	1,350E+3
131,165	36,660	32,200	3,666E+1	3,666E+1	1,350E+3
131,364	36,660	32,200	3,666E+1	3,666E+1	1,350E+3
131,565	37,120	32,190	3,666E+1	3,666E+1	1,350E+3
131,764	37,120	32,190	3,666E+1	3,666E+1	1,350E+3
131,964	37,120	32,190	3,712E+1	3,712E+1	1,350E+3
132,165	37,120	32,190	3,712E+1	3,712E+1	1,350E+3
132,365	37,120	32,190	3,712E+1	3,712E+1	1,350E+3
132,566	37,390	32,220	3,712E+1	3,231E+1	1,350E+3
132,765	37,390	32,220	3,712E+1	3,231E+1	1,350E+3
132,967	37,390	32,220	3,712E+1	3,231E+1	1,350E+3
133,166	37,390	32,220	3,682E+1	3,682E+1	1,350E+3
133,367	37,390	32,220	3,739E+1	3,739E+1	1,350E+3
133,567	37,390	32,220	3,739E+1	3,739E+1	1,350E+3
133,767	37,390	32,220	3,739E+1	3,739E+1	1,350E+3
133,969	37,390	32,220	3,739E+1	3,739E+1	1,350E+3
134,169	37,390	32,220	3,739E+1	3,739E+1	1,350E+3
134,371	37,390	32,220	3,739E+1	3,739E+1	1,350E+3
134,571	37,000	32,250	3,739E+1	3,739E+1	1,350E+3
134,770	37,000	32,250	3,700E+1	3,700E+1	1,350E+3
134,972	37,000	32,250	3,700E+1	3,700E+1	1,350E+3
135,173	36,200	32,220	3,700E+1	3,700E+1	1,350E+3
135,373	36,200	32,220	3,700E+1	3,700E+1	1,350E+3
135,576	36,200	32,220	3,620E+1	3,620E+1	1,350E+3
135,775	36,200	32,220	3,620E+1	3,620E+1	1,350E+3
135,976	36,200	32,220	3,620E+1	3,620E+1	1,350E+3
136,177	36,200	32,220	3,620E+1	3,620E+1	1,350E+3
136,378	36,330	32,190	3,620E+1	3,620E+1	1,350E+3
136,579	36,330	32,190	3,633E+1	3,633E+1	1,350E+3
136,780	36,330	32,190	3,633E+1	3,633E+1	1,350E+3
136,981	36,330	32,190	3,633E+1	3,633E+1	1,350E+3
137,183	36,330	32,190	3,633E+1	3,633E+1	1,350E+3
137,383	36,850	32,240	3,633E+1	3,633E+1	1,350E+3
137,583	36,850	32,240	3,685E+1	3,685E+1	1,350E+3
137,784	36,850	32,240	3,685E+1	3,685E+1	1,350E+3
137,983	36,850	32,240	3,685E+1	3,685E+1	1,350E+3
138,185	36,850	32,240	3,685E+1	3,685E+1	1,350E+3
138,385	37,490	32,270	3,685E+1	3,230E+1	1,350E+3
138,585	37,490	32,270	3,685E+1	3,230E+1	1,350E+3
138,786	37,490	32,270	3,684E+1	3,684E+1	1,350E+3
138,987	37,490	32,270	3,684E+1	3,684E+1	1,350E+3
139,187	37,490	32,270	3,749E+1	3,749E+1	1,350E+3
139,386	37,490	32,270	3,749E+1	3,749E+1	1,350E+3
139,589	37,490	32,270	3,749E+1	3,749E+1	1,350E+3
139,791	37,490	32,270	3,749E+1	3,749E+1	1,350E+3
139,991	37,490	32,270	3,749E+1	3,749E+1	1,350E+3
140,191	37,320	32,240	3,749E+1	3,749E+1	1,350E+3
140,392	37,320	32,240	3,749E+1	3,749E+1	1,350E+3
140,592	37,320	32,240	3,732E+1	3,732E+1	1,350E+3
140,791	37,320	32,240	3,732E+1	3,732E+1	1,350E+3
140,994	37,270	32,190	3,732E+1	3,732E+1	1,350E+3
141,193	37,270	32,190	3,732E+1	3,732E+1	1,350E+3
141,394	37,270	32,190	3,727E+1	3,727E+1	1,350E+3
141,596	37,270	32,190	3,727E+1	3,727E+1	1,350E+3
141,797	37,270	32,190	3,727E+1	3,727E+1	1,350E+3
141,997	36,280	32,100	3,727E+1	3,727E+1	1,350E+3
142,199	36,280	32,100	3,727E+1	3,727E+1	1,350E+3
142,400	36,280	32,100	3,628E+1	3,628E+1	1,350E+3
142,601	36,280	32,100	3,628E+1	3,628E+1	1,350E+3
142,802	36,280	32,100	3,628E+1	3,628E+1	1,350E+3
143,002	36,400	32,210	3,628E+1	3,628E+1	1,350E+3
143,201	36,400	32,210	3,628E+1	3,628E+1	1,350E+3
143,401	36,400	32,210	3,640E+1	3,640E+1	1,350E+3
143,603	36,400	32,210	3,640E+1	3,640E+1	1,350E+3
143,803	36,400	32,210	3,640E+1	3,640E+1	1,350E+3
144,005	36,320	32,170	3,640E+1	3,223E+1	1,350E+3
144,206	36,320	32,170	3,640E+1	3,223E+1	1,350E+3
144,406	36,320	32,170	3,640E+1	3,223E+1	1,350E+3
144,607	36,320	32,170	3,650E+1	3,650E+1	1,350E+3
144,808	36,320	32,170	3,632E+1	3,632E+1	1,350E+3
145,009	36,320	32,170	3,632E+1	3,632E+1	1,350E+3
145,210	36,320	32,170	3,632E+1	3,632E+1	1,350E+3
145,410	36,320	32,170	3,632E+1	3,632E+1	1,350E+3
145,612	36,320	32,170	3,632E+1	3,632E+1	1,350E+3
145,811	36,320	32,170	3,632E+1	3,632E+1	1,350E+3
146,011	36,520	32,200	3,632E+1	3,632E+1	1,350E+3
146,211	36,520	32,200	3,632E+1	3,632E+1	1,350E+3
146,414	36,520	32,200	3,652E+1	3,652E+1	1,350E+3
146,615	36,520	32,200	3,652E+1	3,652E+1	1,350E+3
146,815	36,520	32,200	3,652E+1	3,652E+1	1,350E+3
147,016	36,360	32,090	3,652E+1	3,652E+1	1,350E+3
147,218	36,360	32,090	3,652E+1	3,652E+1	1,350E+3
147,419	36,360	32,090	3,636E+1	3,636E+1	1,350E+3
147,618	36,360	32,090	3,636E+1	3,636E+1	1,350E+3
147,819	36,790	32,200	3,636E+1	3,636E+1	1,350E+3
148,021	36,790	32,200	3,636E+1	3,636E+1	1,350E+3
148,221	36,790	32,200	3,679E+1	3,679E+1	1,350E+3
148,422	36,790	32,200	3,679E+1	3,679E+1	1,350E+3
148,623	36,790	32,200	3,679E+1	3,679E+1	1,350E+3
148,822	35,550	32,170	3,679E+1	3,679E+1	1,350E+3
149,024	35,550	32,170	3,555E+1	3,555E+1	1,350E+3
149,226	35,550	32,170	3,555E+1	3,555E+1	1,350E+3
149,426	35,550	32,170	3,555E+1	3,555E+1	1,350E+3
149,627	35,550	32,170	3,555E+1	3,555E+1	1,350E+3
149,827	37,050	32,170	3,555E+1	3,222E+1	1,350E+3
150,028	37,050	32,170	3,555E+1	3,222E+1	1,350E+3
150,230	37,050	32,170	3,555E+1	3,222E+1	1,350E+3
150,430	37,050	32,170	3,652E+1	3,652E+1	1,350E+3
150,631	37,050	32,170	3,705E+1	3,705E+1	1,350E+3
150,831	37,050	32,170	3,705E+1	3,705E+1	1,350E+3
151,033	37,050	32,170	3,705E+1	3,705E+1	1,350E+3
151,233	37,050	32,170	3,705E+1	3,705E+1	1,350E+3
151,434	37,050	32,170	3,705E+1	3,705E+1	1,350E+3
151,636	37,050	32,170	3,705E+1	3,705E+1	1,350E+3
151,836	37,440	32,200	3,705E+1	3,705E+1	1,350E+3
152,036	37,440	32,200	3,744E+1	3,744E+1	1,350E+3
152,236	37,440	32,200	3,744E+1	3,744E+1	1,350E+3
152,438	37,440	32,200	3,744E+1	3,744E+1	1,350E+3
152,638	36,880	32,190	3,744E+1	3,744E+1	1,350E+3
152,838	36,880	32,190	3,744E+1	3,744E+1	1,350E+3
153,040	36,880	32,190	3,688E+1	3,688E+1	1,350E+3
153,241	36,880	32,190	3,688E+1	3,688E+1	1,350E+3
153,441	36,880	32,190	3,688E+1	3,688E+1	1,350E+3
153,642	36,830	32,100	3,688E+1	3,688E+1	1,350E+3
153,843	36,830	32,100	3,688E+1	3,688E+1	1,350E+3
154,043	36,830	32,100	3,683E+1	3,683E+1	1,350E+3
154,245	36,830	32,100	3,683E+1	3,683E+1	1,350E+3
154,446	36,830	32,100	3,683E+1	3,683E+1	1,350E+3
154,646	36,230	32,220	3,683E+1	3,683E+1	1,350E+3
154,846	36,230	32,220	3,683E+1	3,683E+1	1,350E+3
155,048	36,230	32,220	3,623E+1	3,623E+1	1,350E+3
155,247	36,230	32,220	3,623E+1	3,623E+1	1,350E+3
155,447	36,230	32,220	3,623E+1	3,623E+1	1,350E+3
155,648	36,180	32,140	3,623E+1	3,221E+1	1,350E+3
155,849	36,180	32,140	3,623E+1	3,221E+1	1,350E+3
156,048	36,180	32,140	3,623E+1	3,221E+1	1,350E+3
156,248	36,180	32,140	3,672E+1	3,672E+1	1,350E+3
156,448	36,180	32,140	3,672E+1	3,672E+1	1,350E+3
156,649	36,180	32,140	3,618E+1	3,618E+1	1,350E+3
156,850	36,180	32,140	3,618E+1	3,618E+1	1,350E+3
157,049	36,180	32,140	3,618E+1	3,618E+1	1,350E+3
157,251	36,180	32,140	3,618E+1	3,618E+1	1,350E+3
157,451	36,180	32,140	3,618E+1	3,618E+1	1,350E+3
157,652	35,780	32,190	3,618E+1	3,618E+1	1,350E+3
157,851	35,780	32,190	3,618E+1	3,618E+1	1,350E+3
158,052	35,780	32,190	3,578E+1	3,578E+1	1,350E+3
158,252	35,780	32,190	3,578E+1	3,578E+1	1,350E+3
158,452	35,780	32,190	3,578E+1	3,578E+1	1,350E+3
158,653	36,580	32,140	3,578E+1	3,578E+1	1,350E+3
158,854	36,580	32,140	3,578E+1	3,578E+1	1,350E+3
159,053	36,580	32,140	3,658E+1	3,658E+1	1,350E+3
159,254	36,580	32,140	3,658E+1	3,658E+1	1,350E+3
159,456	36,740	32,110	3,658E+1	3,658E+1	1,350E+3
159,656	36,740	32,110	3,658E+1	3,658E+1	1,350E+3
159,858	36,740	32,110	3,674E+1	3,674E+1	1,350E+3
160,058	36,740	32,110	3,674E+1	3,674E+1	1,350E+3
160,257	36,740	32,110	3,674E+1	3,674E+1	1,350E+3
160,457	36,480	32,110	3,674E+1	3,674E+1	1,350E+3
160,659	36,480	32,110	3,648E+1	3,648E+1	1,350E+3
160,859	36,480	32,110	3,648E+1	3,648E+1	1,350E+3
161,061	36,480	32,110	3,648E+1	3,648E+1	1,350E+3
161,262	36,480	32,110	3,648E+1	3,648E+1	1,350E+3
161,461	35,880	32,140	3,648E+1	3,219E+1	1,350E+3
161,661	35,880	32,140	3,648E+1	3,219E+1	1,350E+3
161,863	35,880	32,140	3,648E+1	3,219E+1	1,350E+3
162,063	35,880	32,140	3,640E+1	3,640E+1	1,350E+3
162,262	35,880	32,140	3,588E+1	3,588E+1	1,350E+3
162,463	35,880	32,140	3,588E+1	3,588E+1	1,350E+3
162,663	35,880	32,140	3,588E+1	3,588E+1	1,350E+3
162,864	35,880	32,140	3,588E+1	3,588E+1	1,350E+3
163,065	35,880	32,140	3,588E+1	3,588E+1	1,350E+3
163,265	35,880	32,140	3,588E+1	3,588E+1	1,350E+3
163,465	36,390	32,150	3,588E+1	3,588E+1	1,350E+3
163,665	36,390	32,150	3,639E+1	3,639E+1	1,350E+3
163,865	36,390	32,150	3,639E+1	3,639E+1	1,350E+3
164,065	36,390	32,150	3,639E+1	3,639E+1	1,350E+3
164,267	36,390	32,150	3,639E+1	3,639E+1	1,350E+3
164,468	36,640	32,080	3,639E+1	3,639E+1	1,350E+3
164,667	36,640	32,080	3,639E+1	3,639E+1	1,350E+3
164,869	36,640	32,080	3,664E+1	3,664E+1	1,350E+3
165,069	36,640	32,080	3,664E+1	3,664E+1	1,350E+3
165,271	36,830	32,130	3,664E+1	3,664E+1	1,350E+3
165,471	36,830	32,130	3,683E+1	3,683E+1	1,350E+3
165,471	36,830	32,130	3,683E+1	3,683E+1	1,350E+3
165,672	36,830	32,130	3,683E+1	3,683E+1	1,350E+3
165,871	36,350	32,060	3,683E+1	3,683E+1	1,350E+3
166,071	36,350	32,060	3,683E+1	3,683E+1	1,350E+3
166,271	36,350	32,060	3,635E+1	3,635E+1	1,350E+3
166,472	36,350	32,060	3,635E+1	3,635E+1	1,350E+3
166,673	36,350	32,060	3,635E+1	3,635E+1	1,350E+3
166,875	36,350	32,060	3,635E+1	3,635E+1	1,350E+3
167,075	36,350	32,060	3,635E+1	3,216E+1	1,350E+3
167,274	36,350	32,060	3,635E+1	3,216E+1	1,350E+3
167,475	37,300	32,060	3,647E+1	3,647E+1	1,350E+3
167,675	37,300	32,060	3,647E+1	3,647E+1	1,350E+3
167,876	37,300	32,060	3,730E+1	3,730E+1	1,350E+3
168,075	37,300	32,060	3,730E+1	3,730E+1	1,350E+3
168,275	37,300	32,060	3,730E+1	3,730E+1	1,350E+3
168,476	37,300	32,060	3,730E+1	3,730E+1	1,350E+3
168,675	37,300	32,060	3,730E+1	3,730E+1	1,350E+3
168,876	36,090	32,110	3,730E+1	3,730E+1	1,350E+3
169,078	36,090	32,110	3,730E+1	3,730E+1	1,350E+3
169,478	36,090	32,110	3,609E+1	3,609E+1	1,350E+3
169,478	36,090	32,110	3,609E+1	3,609E+1	1,350E+3
169,677	36,090	32,110	3,609E+1	3,609E+1	1,350E+3
169,878	36,370	32,150	3,609E+1	3,609E+1	1,350E+3
170,078	36,370	32,150	3,609E+1	3,609E+1	1,350E+3
170,277	36,370	32,150	3,637E+1	3,637E+1	1,350E+3
170,477	36,370	32,150	3,637E+1	3,637E+1	1,350E+3
170,678	36,370	32,150	3,637E+1	3,637E+1	1,350E+3
170,880	36,820	32,040	3,637E+1	3,637E+1	1,350E+3
171,080	36,820	32,040	3,637E+1	3,637E+1	1,350E+3
171,280	36,820	32,040	3,682E+1	3,682E+1	1,350E+3
171,481	36,820	32,040	3,682E+1	3,682E+1	1,350E+3
171,681	36,820	32,040	3,682E+1	3,682E+1	1,350E+3
171,882	37,210	32,130	3,682E+1	3,682E+1	1,350E+3
172,083	37,210	32,130	3,682E+1	3,682E+1	1,350E+3
172,284	37,210	32,130	3,721E+1	3,721E+1	1,350E+3
172,484	37,210	32,130	3,721E+1	3,721E+1	1,350E+3
172,683	37,210	32,130	3,721E+1	3,721E+1	1,350E+3
172,883	37,110	32,060	3,721E+1	3,215E+1	1,350E+3
173,084	37,110	32,060	3,721E+1	3,215E+1	1,350E+3
173,283	37,110	32,060	3,721E+1	3,215E+1	1,350E+3
173,484	37,110	32,060	3,651E+1	3,651E+1	1,350E+3
173,684	37,110	32,060	3,711E+1	3,711E+1	1,350E+3
173,887	37,110	32,060	3,711E+1	3,711E+1	1,350E+3
174,086	37,110	32,060	3,711E+1	3,711E+1	1,350E+3
174,286	37,110	32,060	3,711E+1	3,711E+1	1,350E+3
174,486	37,110	32,060	3,711E+1	3,711E+1	1,350E+3
174,688	37,110	32,060	3,711E+1	3,711E+1	1,350E+3
174,888	36,360	31,990	3,711E+1	3,711E+1	1,350E+3
175,087	36,360	31,990	3,636E+1	3,636E+1	1,350E+3
175,288	36,360	31,990	3,636E+1	3,636E+1	1,350E+3
175,490	36,360	31,990	3,636E+1	3,636E+1	1,350E+3
175,690	36,360	31,990	3,636E+1	3,636E+1	1,350E+3
175,890	36,000	32,070	3,636E+1	3,636E+1	1,350E+3
176,092	36,000	32,070	3,636E+1	3,636E+1	1,350E+3
176,293	36,000	32,070	3,600E+1	3,600E+1	1,350E+3
176,494	36,630	32,080	3,600E+1	3,600E+1	1,350E+3
176,694	36,630	32,080	3,600E+1	3,600E+1	1,350E+3
176,894	36,630	32,080	3,663E+1	3,663E+1	1,350E+3
177,093	36,630	32,080	3,663E+1	3,663E+1	1,350E+3
177,293	36,630	32,080	3,663E+1	3,663E+1	1,350E+3
177,494	36,630	32,080	3,663E+1	3,663E+1	1,350E+3
177,695	37,140	32,030	3,663E+1	3,663E+1	1,350E+3
177,895	37,140	32,030	3,714E+1	3,714E+1	1,350E+3
178,094	37,140	32,030	3,714E+1	3,714E+1	1,350E+3
178,294	37,140	32,030	3,714E+1	3,714E+1	1,350E+3
178,494	37,140	32,030	3,714E+1	3,714E+1	1,350E+3
178,694	33,830	28,900	3,714E+1	3,147E+1	1,350E+3
178,894	33,830	28,900	3,714E+1	3,147E+1	1,350E+3
179,094	33,830	28,900	3,586E+1	3,586E+1	1,350E+3
179,294	33,830	28,900	3,383E+1	3,383E+1	1,350E+3
179,497	33,830	28,900	3,383E+1	3,383E+1	1,350E+3
179,696	33,830	28,900	3,383E+1	3,383E+1	1,350E+3
179,897	33,830	28,900	3,383E+1	3,383E+1	1,350E+3
180,097	33,830	28,900	3,383E+1	3,383E+1	1,350E+3
180,297	33,830	28,900	3,383E+1	3,383E+1	1,350E+3
180,497	13,480	9,500	3,383E+1	3,383E+1	1,350E+3
180,699	13,480	9,500	3,383E+1	3,383E+1	1,350E+3
180,899	13,480	9,500	1,348E+1	1,348E+1	1,350E+3
181,098	13,480	9,500	1,348E+1	1,348E+1	1,350E+3
181,299	12,380	9,310	1,348E+1	1,348E+1	1,350E+3
181,498	12,380	9,310	1,348E+1	1,348E+1	1,350E+3
181,700	12,380	9,310	1,238E+1	1,238E+1	1,350E+3
181,900	12,380	9,310	1,238E+1	1,238E+1	1,350E+3
182,101	12,380	9,310	1,238E+1	1,238E+1	1,350E+3
182,300	12,380	9,310	1,238E+1	1,238E+1	1,350E+3
182,500	11,880	9,250	1,238E+1	1,238E+1	1,350E+3
182,702	11,880	9,250	1,188E+1	1,188E+1	1,350E+3
182,902	11,880	9,250	1,188E+1	1,188E+1	1,350E+3
183,101	11,880	9,250	1,188E+1	1,188E+1	1,350E+3
183,302	13,320	9,300	1,188E+1	1,188E+1	1,350E+3
183,503	13,320	9,300	1,188E+1	1,188E+1	1,350E+3
183,702	13,320	9,300	1,332E+1	1,332E+1	1,350E+3
183,904	13,320	9,300	1,332E+1	1,332E+1	1,350E+3
184,104	13,320	9,300	1,332E+1	1,332E+1	1,350E+3
184,305	13,320	9,300	1,332E+1	1,332E+1	1,350E+3
184,504	12,760	9,260	1,332E+1	9,344E+0	1,350E+3
184,705	12,760	9,260	1,332E+1	9,344E+0	1,350E+3
184,908	12,760	9,260	1,293E+1	1,293E+1	1,350E+3
185,108	12,760	9,260	1,276E+1	1,276E+1	1,350E+3
185,309	12,760	9,260	1,276E+1	1,276E+1	1,350E+3
185,508	12,760	9,260	1,276E+1	1,276E+1	1,350E+3
185,709	12,760	9,260	1,276E+1	1,276E+1	1,350E+3
185,910	12,760	9,260	1,276E+1	1,276E+1	1,350E+3
186,111	12,760	9,260	1,276E+1	1,276E+1	1,350E+3
186,313	13,280	9,250	1,276E+1	1,276E+1	1,350E+3
186,513	13,280	9,250	1,328E+1	1,328E+1	1,350E+3
186,713	13,280	9,250	1,328E+1	1,328E+1	1,350E+3
186,913	13,280	9,250	1,328E+1	1,328E+1	1,350E+3
187,115	13,280	9,250	1,328E+1	1,328E+1	1,350E+3
187,315	12,310	9,240	1,328E+1	1,328E+1	1,350E+3
187,517	12,310	9,240	1,231E+1	1,231E+1	1,350E+3
187,717	12,310	9,240	1,231E+1	1,231E+1	1,350E+3
187,916	12,310	9,240	1,231E+1	1,231E+1	1,350E+3
188,117	12,310	9,240	1,231E+1	1,231E+1	1,350E+3
188,318	12,810	9,270	1,231E+1	1,231E+1	1,350E+3
188,519	12,810	9,270	1,281E+1	1,281E+1	1,350E+3
188,720	12,810	9,270	1,281E+1	1,281E+1	1,350E+3
188,920	12,810	9,270	1,281E+1	1,281E+1	1,350E+3
189,121	12,730	9,270	1,281E+1	1,281E+1	1,350E+3
189,322	12,730	9,270	1,281E+1	1,281E+1	1,350E+3
189,523	12,730	9,270	1,273E+1	1,273E+1	1,350E+3
189,724	12,730	9,270	1,273E+1	1,273E+1	1,350E+3
189,923	12,730	9,270	1,273E+1	1,273E+1	1,350E+3
190,123	12,730	9,270	1,273E+1	1,273E+1	1,350E+3
190,323	13,270	9,320	1,273E+1	9,292E+0	1,350E+3
190,524	13,270	9,320	1,273E+1	9,292E+0	1,350E+3
190,723	13,270	9,320	1,280E+1	1,280E+1	1,350E+3
190,924	13,270	9,320	1,280E+1	1,280E+1	1,350E+3
191,124	13,270	9,320	1,327E+1	1,327E+1	1,350E+3
191,324	13,270	9,320	1,327E+1	1,327E+1	1,350E+3
191,524	13,270	9,320	1,327E+1	1,327E+1	1,350E+3
191,726	13,270	9,320	1,327E+1	1,327E+1	1,350E+3
191,926	13,260	9,230	1,327E+1	1,327E+1	1,350E+3
192,126	13,260	9,230	1,327E+1	1,327E+1	1,350E+3
192,327	13,260	9,230	1,326E+1	1,326E+1	1,350E+3
192,527	13,260	9,230	1,326E+1	1,326E+1	1,350E+3
192,728	13,260	9,230	1,326E+1	1,326E+1	1,350E+3
192,928	13,260	9,230	1,326E+1	1,326E+1	1,350E+3
193,129	13,190	9,250	1,326E+1	1,326E+1	1,350E+3
193,328	13,190	9,250	1,326E+1	1,326E+1	1,350E+3
193,528	13,190	9,250	1,319E+1	1,319E+1	1,350E+3
193,729	13,190	9,250	1,319E+1	1,319E+1	1,350E+3
193,930	12,630	9,230	1,319E+1	1,319E+1	1,350E+3
194,130	12,630	9,230	1,263E+1	1,263E+1	1,350E+3
194,330	12,630	9,230	1,263E+1	1,263E+1	1,350E+3
194,531	12,630	9,230	1,263E+1	1,263E+1	1,350E+3
194,731	12,630	9,230	1,263E+1	1,263E+1	1,350E+3
194,931	12,860	9,250	1,263E+1	1,263E+1	1,350E+3
195,132	12,860	9,250	1,286E+1	1,286E+1	1,350E+3
195,331	12,860	9,250	1,286E+1	1,286E+1	1,350E+3
195,532	12,860	9,250	1,286E+1	1,286E+1	1,350E+3
195,733	12,860	9,250	1,286E+1	1,286E+1	1,350E+3
195,933	12,860	9,250	1,286E+1	9,263E+0	1,350E+3
196,132	12,860	9,250	1,286E+1	9,263E+0	1,350E+3
196,332	12,860	9,250	1,286E+1	9,263E+0	1,350E+3
196,534	13,080	9,220	1,287E+1	1,287E+1	1,350E+3
196,735	13,080	9,220	1,287E+1	1,287E+1	1,350E+3
196,935	13,080	9,220	1,308E+1	1,308E+1	1,350E+3
197,135	13,080	9,220	1,308E+1	1,308E+1	1,350E+3
197,336	13,080	9,220	1,308E+1	1,308E+1	1,350E+3
197,536	13,080	9,220	1,308E+1	1,308E+1	1,350E+3
197,735	12,700	9,280	1,308E+1	1,308E+1	1,350E+3
197,936	12,700	9,280	1,308E+1	1,308E+1	1,350E+3
198,137	12,700	9,280	1,270E+1	1,270E+1	1,350E+3
198,336	12,700	9,280	1,270E+1	1,270E+1	1,350E+3
198,537	12,700	9,280	1,270E+1	1,270E+1	1,350E+3
198,736	12,360	9,210	1,270E+1	1,270E+1	1,350E+3
198,937	12,360	9,210	1,270E+1	1,270E+1	1,350E+3
199,138	12,360	9,210	1,236E+1	1,236E+1	1,350E+3
199,338	12,360	9,210	1,236E+1	1,236E+1	1,350E+3
199,538	12,360	9,210	1,236E+1	1,236E+1	1,350E+3
199,738	12,710	9,260	1,236E+1	1,236E+1	1,350E+3
199,940	12,710	9,260	1,236E+1	1,236E+1	1,350E+3
200,139	12,710	9,260	1,271E+1	1,271E+1	1,350E+3
200,339	12,710	9,260	1,271E+1	1,271E+1	1,350E+3
200,540	12,710	9,260	1,271E+1	1,271E+1	1,350E+3
200,742	13,260	9,240	1,271E+1	1,271E+1	1,350E+3
200,941	13,260	9,240	1,271E+1	1,271E+1	1,350E+3
201,141	13,260	9,240	1,326E+1	1,326E+1	1,350E+3
201,342	13,260	9,240	1,326E+1	1,326E+1	1,350E+3
201,542	13,260	9,240	1,326E+1	1,326E+1	1,350E+3
201,743	12,960	9,240	1,326E+1	9,264E+0	1,350E+3
201,943	12,960	9,240	1,326E+1	9,264E+0	1,350E+3
202,143	12,960	9,240	1,326E+1	9,264E+0	1,350E+3
202,345	12,960	9,240	1,291E+1	1,291E+1	1,350E+3
202,545	12,960	9,240	1,296E+1	1,296E+1	1,350E+3
202,746	12,960	9,240	1,296E+1	1,296E+1	1,350E+3
202,947	12,960	9,240	1,296E+1	1,296E+1	1,350E+3
203,147	12,960	9,240	1,296E+1	1,296E+1	1,350E+3
203,347	12,960	9,240	1,296E+1	1,296E+1	1,350E+3
203,549	13,160	9,200	1,296E+1	1,296E+1	1,350E+3
203,751	13,160	9,200	1,296E+1	1,296E+1	1,350E+3
203,951	13,160	9,200	1,316E+1	1,316E+1	1,350E+3
204,150	13,160	9,200	1,316E+1	1,316E+1	1,350E+3
204,351	13,160	9,200	1,316E+1	1,316E+1	1,350E+3
204,551	12,180	9,220	1,316E+1	1,316E+1	1,350E+3
204,751	12,180	9,220	1,316E+1	1,316E+1	1,350E+3
204,950	12,180	9,220	1,218E+1	1,218E+1	1,350E+3
205,151	12,180	9,220	1,218E+1	1,218E+1	1,350E+3
205,351	12,180	9,220	1,218E+1	1,218E+1	1,350E+3
205,552	13,100	9,310	1,218E+1	1,218E+1	1,350E+3
205,752	13,100	9,310	1,218E+1	1,218E+1	1,350E+3
205,952	13,100	9,310	1,310E+1	1,310E+1	1,350E+3
206,153	13,100	9,310	1,310E+1	1,310E+1	1,350E+3
206,352	13,100	9,310	1,310E+1	1,310E+1	1,350E+3
206,554	13,480	9,240	1,310E+1	1,310E+1	1,350E+3
206,755	13,480	9,240	1,310E+1	1,310E+1	1,350E+3
206,955	13,480	9,240	1,348E+1	1,348E+1	1,350E+3
207,155	13,480	9,240	1,348E+1	1,348E+1	1,350E+3
207,356	13,480	9,240	1,348E+1	1,348E+1	1,350E+3
207,556	12,640	9,210	1,348E+1	9,252E+0	1,350E+3
207,757	12,640	9,210	1,348E+1	9,252E+0	1,350E+3
207,957	12,640	9,210	1,276E+1	1,276E+1	1,350E+3
208,157	12,640	9,210	1,276E+1	1,276E+1	1,350E+3
208,357	12,640	9,210	1,264E+1	1,264E+1	1,350E+3
208,558	12,640	9,210	1,264E+1	1,264E+1	1,350E+3
208,758	12,640	9,210	1,264E+1	1,264E+1	1,350E+3
208,960	12,640	9,210	1,264E+1	1,264E+1	1,350E+3
209,160	12,640	9,210	1,264E+1	1,264E+1	1,350E+3
209,359	12,640	9,210	1,264E+1	1,264E+1	1,350E+3
209,560	13,270	9,230	1,264E+1	1,264E+1	1,350E+3
209,760	13,270	9,230	1,264E+1	1,264E+1	1,350E+3
209,961	13,270	9,230	1,327E+1	1,327E+1	1,350E+3
210,161	13,270	9,230	1,327E+1	1,327E+1	1,350E+3
210,362	12,080	9,220	1,327E+1	1,327E+1	1,350E+3
210,561	12,080	9,220	1,327E+1	1,327E+1	1,350E+3
210,762	12,080	9,220	1,208E+1	1,208E+1	1,350E+3
210,964	12,080	9,220	1,208E+1	1,208E+1	1,350E+3
211,163	12,080	9,220	1,208E+1	1,208E+1	1,350E+3
211,363	13,100	9,220	1,208E+1	1,208E+1	1,350E+3
211,565	13,100	9,220	1,310E+1	1,310E+1	1,350E+3
211,767	13,100	9,220	1,310E+1	1,310E+1	1,350E+3
211,967	13,100	9,220	1,310E+1	1,310E+1	1,350E+3
212,166	13,100	9,220	1,310E+1	1,310E+1	1,350E+3
212,368	12,960	9,260	1,310E+1	1,310E+1	1,350E+3
212,568	12,960	9,260	1,296E+1	1,296E+1	1,350E+3
212,769	12,960	9,260	1,296E+1	1,296E+1	1,350E+3
212,970	12,960	9,260	1,296E+1	1,296E+1	1,350E+3
213,169	12,960	9,260	1,296E+1	1,296E+1	1,350E+3
213,371	13,200	9,240	1,296E+1	9,246E+0	1,350E+3
213,571	13,200	9,240	1,296E+1	9,246E+0	1,350E+3
213,771	13,200	9,240	1,273E+1	1,273E+1	1,350E+3
213,973	13,200	9,240	1,273E+1	1,273E+1	1,350E+3
214,174	13,200	9,240	1,320E+1	1,320E+1	1,350E+3
214,374	13,200	9,240	1,320E+1	1,320E+1	1,350E+3
214,573	13,200	9,240	1,320E+1	1,320E+1	1,350E+3
214,775	13,200	9,240	1,320E+1	1,320E+1	1,350E+3
214,974	13,200	9,240	1,320E+1	1,320E+1	1,350E+3
215,176	13,460	9,210	1,320E+1	1,320E+1	1,350E+3
215,377	13,460	9,210	1,320E+1	1,320E+1	1,350E+3
215,576	13,460	9,210	1,346E+1	1,346E+1	1,350E+3
215,777	13,460	9,210	1,346E+1	1,346E+1	1,350E+3
215,977	13,460	9,210	1,346E+1	1,346E+1	1,350E+3
216,179	12,070	9,220	1,346E+1	1,346E+1	1,350E+3
216,379	12,070	9,220	1,346E+1	1,346E+1	1,350E+3
216,581	12,070	9,220	1,207E+1	1,207E+1	1,350E+3
216,781	12,070	9,220	1,207E+1	1,207E+1	1,350E+3
216,981	12,070	9,220	1,207E+1	1,207E+1	1,350E+3
217,183	12,340	9,200	1,207E+1	1,207E+1	1,350E+3
217,385	12,340	9,200	1,234E+1	1,234E+1	1,350E+3
217,585	12,340	9,200	1,234E+1	1,234E+1	1,350E+3
217,785	12,340	9,200	1,234E+1	1,234E+1	1,350E+3
217,988	12,340	9,200	1,234E+1	1,234E+1	1,350E+3
218,188	13,440	9,210	1,234E+1	1,234E+1	1,350E+3
218,388	13,440	9,210	1,344E+1	1,344E+1	1,350E+3
218,588	13,440	9,210	1,344E+1	1,344E+1	1,350E+3
218,788	13,440	9,210	1,344E+1	1,344E+1	1,350E+3
218,989	13,440	9,210	1,344E+1	1,344E+1	1,350E+3
219,189	12,700	9,220	1,344E+1	9,233E+0	1,350E+3
219,389	12,700	9,220	1,344E+1	9,233E+0	1,350E+3
219,589	12,700	9,220	1,283E+1	1,283E+1	1,350E+3
219,791	12,700	9,220	1,283E+1	1,283E+1	1,350E+3
219,992	12,700	9,220	1,270E+1	1,270E+1	1,350E+3
220,193	12,700	9,220	1,270E+1	1,270E+1	1,350E+3
220,393	12,700	9,220	1,270E+1	1,270E+1	1,350E+3
220,593	12,700	9,220	1,270E+1	1,270E+1	1,350E+3
220,795	12,700	9,220	1,270E+1	1,270E+1	1,350E+3
220,994	12,700	9,220	1,270E+1	1,270E+1	1,350E+3
221,195	13,060	9,260	1,270E+1	1,270E+1	1,350E+3
221,397	13,060	9,260	1,270E+1	1,270E+1	1,350E+3
221,597	13,060	9,260	1,306E+1	1,306E+1	1,350E+3
221,796	13,060	9,260	1,306E+1	1,306E+1	1,350E+3
221,996	12,580	9,150	1,306E+1	1,306E+1	1,350E+3
222,197	12,580	9,150	1,306E+1	1,306E+1	1,350E+3
222,399	12,580	9,150	1,258E+1	1,258E+1	1,350E+3
222,599	12,580	9,150	1,258E+1	1,258E+1	1,350E+3
222,799	13,860	9,250	1,258E+1	1,258E+1	1,350E+3
223,000	13,860	9,250	1,258E+1	1,258E+1	1,350E+3
223,199	13,860	9,250	1,386E+1	1,386E+1	1,350E+3
223,399	13,860	9,250	1,386E+1	1,386E+1	1,350E+3
223,600	13,860	9,250	1,386E+1	1,386E+1	1,350E+3
223,800	13,860	9,250	1,386E+1	1,386E+1	1,350E+3
224,000	12,940	9,190	1,386E+1	1,386E+1	1,350E+3
224,201	12,940	9,190	1,386E+1	1,386E+1	1,350E+3
224,400	12,940	9,190	1,294E+1	1,294E+1	1,350E+3
224,600	12,940	9,190	1,294E+1	1,294E+1	1,350E+3
224,801	11,920	9,170	1,294E+1	9,223E+0	1,350E+3
225,000	11,920	9,170	1,294E+1	9,223E+0	1,350E+3
225,201	11,920	9,170	1,291E+1	1,291E+1	1,350E+3
225,400	11,920	9,170	1,291E+1	1,291E+1	1,350E+3
225,601	11,920	9,170	1,192E+1	1,192E+1	1,350E+3
225,802	11,920	9,170	1,192E+1	1,192E+1	1,350E+3
226,002	11,920	9,170	1,192E+1	1,192E+1	1,350E+3
226,203	11,920	9,170	1,192E+1	1,192E+1	1,350E+3
226,402	12,810	9,250	1,192E+1	1,192E+1	1,350E+3
226,602	12,810	9,250	1,192E+1	1,192E+1	1,350E+3
226,803	12,810	9,250	1,281E+1	1,281E+1	1,350E+3
227,003	12,810	9,250	1,281E+1	1,281E+1	1,350E+3
227,204	12,810	9,250	1,281E+1	1,281E+1	1,350E+3
227,405	12,810	9,250	1,281E+1	1,281E+1	1,350E+3
227,605	12,920	9,130	1,281E+1	1,281E+1	1,350E+3
227,806	12,920	9,130	1,292E+1	1,292E+1	1,350E+3
228,006	12,920	9,130	1,292E+1	1,292E+1	1,350E+3
228,207	12,920	9,130	1,292E+1	1,292E+1	1,350E+3
228,408	12,920	9,130	1,292E+1	1,292E+1	1,350E+3
228,607	12,920	9,230	1,292E+1	1,292E+1	1,350E+3
228,808	12,920	9,230	1,292E+1	1,292E+1	1,350E+3
229,009	12,920	9,230	1,292E+1	1,292E+1	1,350E+3
229,209	12,920	9,230	1,292E+1	1,292E+1	1,350E+3
229,409	12,700	9,160	1,292E+1	1,292E+1	1,350E+3
229,609	12,700	9,160	1,292E+1	1,292E+1	1,350E+3
229,810	12,700	9,160	1,270E+1	1,270E+1	1,350E+3
230,011	12,700	9,160	1,270E+1	1,270E+1	1,350E+3
230,211	12,700	9,160	1,270E+1	1,270E+1	1,350E+3
230,412	12,700	9,160	1,270E+1	1,270E+1	1,350E+3
230,613	13,780	9,240	1,270E+1	9,224E+0	1,350E+3
230,812	13,780	9,240	1,270E+1	9,224E+0	1,350E+3
231,012	13,780	9,240	1,291E+1	1,291E+1	1,350E+3
231,214	13,780	9,240	1,291E+1	1,291E+1	1,350E+3
231,414	13,780	9,240	1,378E+1	1,378E+1	1,350E+3
231,615	13,780	9,240	1,378E+1	1,378E+1	1,350E+3
231,815	13,780	9,240	1,378E+1	1,378E+1	1,350E+3
232,016	13,780	9,240	1,378E+1	1,378E+1	1,350E+3
232,215	13,780	9,240	1,378E+1	1,378E+1	1,350E+3
232,415	13,110	9,180	1,378E+1	1,378E+1	1,350E+3
232,616	13,110	9,180	1,378E+1	1,378E+1	1,350E+3
232,815	13,110	9,180	1,311E+1	1,311E+1	1,350E+3
233,017	13,110	9,180	1,311E+1	1,311E+1	1,350E+3
233,217	13,110	9,180	1,311E+1	1,311E+1	1,350E+3
233,419	13,110	9,180	1,311E+1	1,311E+1	1,350E+3
233,618	12,880	9,230	1,311E+1	1,311E+1	1,350E+3
233,819	12,880	9,230	1,311E+1	1,311E+1	1,350E+3
234,019	12,880	9,230	1,288E+1	1,288E+1	1,350E+3
234,219	12,830	9,180	1,288E+1	1,288E+1	1,350E+3
234,421	12,830	9,180	1,288E+1	1,288E+1	1,350E+3
234,621	12,830	9,180	1,283E+1	1,283E+1	1,350E+3
234,821	12,830	9,180	1,283E+1	1,283E+1	1,350E+3
235,023	12,830	9,180	1,283E+1	1,283E+1	1,350E+3
235,223	12,920	9,220	1,283E+1	1,283E+1	1,350E+3
235,422	12,920	9,220	1,283E+1	1,283E+1	1,350E+3
235,624	12,920	9,220	1,292E+1	1,292E+1	1,350E+3
235,824	12,920	9,220	1,292E+1	1,292E+1	1,350E+3
236,024	12,920	9,220	1,292E+1	1,292E+1	1,350E+3
236,227	12,710	9,190	1,292E+1	9,215E+0	1,350E+3
236,427	12,710	9,190	1,292E+1	9,215E+0	1,350E+3
236,627	12,710	9,190	1,292E+1	9,215E+0	1,350E+3
236,827	12,710	9,190	1,269E+1	1,269E+1	1,350E+3
237,028	12,710	9,190	1,271E+1	1,271E+1	1,350E+3
237,229	12,710	9,190	1,271E+1	1,271E+1	1,350E+3
237,428	12,710	9,190	1,271E+1	1,271E+1	1,350E+3
237,629	12,710	9,190	1,271E+1	1,271E+1	1,350E+3
237,828	12,660	9,160	1,271E+1	1,271E+1	1,350E+3
238,029	12,660	9,160	1,271E+1	1,271E+1	1,350E+3
238,230	12,660	9,160	1,271E+1	1,271E+1	1,350E+3
238,430	12,660	9,160	1,266E+1	1,266E+1	1,350E+3
238,629	12,660	9,160	1,266E+1	1,266E+1	1,350E+3
238,831	12,660	9,160	1,266E+1	1,266E+1	1,350E+3
239,030	12,540	9,200	1,266E+1	1,266E+1	1,350E+3
239,230	12,540	9,200	1,266E+1	1,266E+1	1,350E+3
239,431	12,540	9,200	1,254E+1	1,254E+1	1,350E+3
239,631	12,540	9,200	1,254E+1	1,254E+1	1,350E+3
239,830	12,540	9,200	1,254E+1	1,254E+1	1,350E+3
240,030	12,440	9,220	1,254E+1	1,254E+1	1,350E+3
240,230	12,440	9,220	1,244E+1	1,244E+1	1,350E+3
240,431	12,440	9,220	1,244E+1	1,244E+1	1,350E+3
240,631	12,440	9,220	1,244E+1	1,244E+1	1,350E+3
240,831	12,440	9,220	1,244E+1	1,244E+1	1,350E+3
241,032	12,830	9,170	1,244E+1	1,244E+1	1,350E+3
241,232	12,830	9,170	1,283E+1	1,283E+1	1,350E+3
241,431	12,830	9,170	1,283E+1	1,283E+1	1,350E+3
241,632	12,830	9,170	1,283E+1	1,283E+1	1,350E+3
241,833	12,830	9,170	1,283E+1	1,283E+1	1,350E+3
242,034	13,390	9,220	1,283E+1	9,213E+0	1,350E+3
242,233	13,390	9,220	1,283E+1	9,213E+0	1,350E+3
242,435	13,390	9,220	1,281E+1	1,281E+1	1,350E+3
242,636	13,390	9,220	1,281E+1	1,281E+1	1,350E+3
242,835	13,390	9,220	1,339E+1	1,339E+1	1,350E+3
243,037	13,390	9,220	1,339E+1	1,339E+1	1,350E+3
243,237	13,390	9,220	1,339E+1	1,339E+1	1,350E+3
243,439	13,390	9,220	1,339E+1	1,339E+1	1,350E+3
243,640	13,390	9,220	1,339E+1	1,339E+1	1,350E+3
243,839	13,390	9,220	1,339E+1	1,339E+1	1,350E+3
244,040	12,960	9,160	1,339E+1	1,339E+1	1,350E+3
244,242	12,960	9,160	1,339E+1	1,339E+1	1,350E+3
244,445	12,960	9,160	1,296E+1	1,296E+1	1,350E+3
244,645	12,960	9,160	1,296E+1	1,296E+1	1,350E+3
244,846	12,060	9,180	1,296E+1	1,296E+1	1,350E+3
245,048	12,060	9,180	1,296E+1	1,296E+1	1,350E+3
245,247	12,060	9,180	1,206E+1	1,206E+1	1,350E+3
245,449	12,060	9,180	1,206E+1	1,206E+1	1,350E+3
245,649	12,650	9,200	1,206E+1	1,206E+1	1,350E+3
245,851	12,650	9,200	1,206E+1	1,206E+1	1,350E+3
246,052	12,650	9,200	1,265E+1	1,265E+1	1,350E+3
246,253	12,650	9,200	1,265E+1	1,265E+1	1,350E+3
246,454	12,650	9,200	1,265E+1	1,265E+1	1,350E+3
246,655	12,650	9,200	1,265E+1	1,265E+1	1,350E+3
246,856	12,370	9,160	1,265E+1	1,265E+1	1,350E+3
247,056	12,370	9,160	1,265E+1	1,265E+1	1,350E+3
247,257	12,370	9,160	1,237E+1	1,237E+1	1,350E+3
247,456	12,370	9,160	1,237E+1	1,237E+1	1,350E+3
247,658	12,370	9,160	1,237E+1	1,237E+1	1,350E+3
247,858	13,300	9,180	1,237E+1	9,195E+0	1,350E+3
248,060	13,300	9,180	1,237E+1	9,195E+0	1,350E+3
248,261	13,300	9,180	1,276E+1	1,276E+1	1,350E+3
248,461	13,300	9,180	1,276E+1	1,276E+1	1,350E+3
248,662	13,300	9,180	1,330E+1	1,330E+1	1,350E+3
248,861	13,300	9,180	1,330E+1	1,330E+1	1,350E+3
249,061	13,300	9,180	1,330E+1	1,330E+1	1,350E+3
249,261	13,300	9,180	1,330E+1	1,330E+1	1,350E+3
249,462	13,300	9,180	1,330E+1	1,330E+1	1,350E+3
249,663	13,300	9,180	1,330E+1	1,330E+1	1,350E+3
249,863	12,020	9,170	1,330E+1	1,330E+1	1,350E+3
250,062	12,020	9,170	1,202E+1	1,202E+1	1,350E+3
250,264	12,020	9,170	1,202E+1	1,202E+1	1,350E+3
250,465	12,950	9,200	1,202E+1	1,202E+1	1,350E+3
250,666	12,950	9,200	1,202E+1	1,202E+1	1,350E+3
250,866	12,950	9,200	1,295E+1	1,295E+1	1,350E+3
251,066	12,950	9,200	1,295E+1	1,295E+1	1,350E+3
251,267	12,950	9,200	1,295E+1	1,295E+1	1,350E+3
251,468	12,950	9,200	1,295E+1	1,295E+1	1,350E+3
251,668	12,960	9,170	1,295E+1	1,295E+1	1,350E+3
251,869	12,960	9,170	1,295E+1	1,295E+1	1,350E+3
252,068	12,960	9,170	1,296E+1	1,296E+1	1,350E+3
252,268	12,960	9,170	1,296E+1	1,296E+1	1,350E+3
252,469	12,300	9,150	1,296E+1	1,296E+1	1,350E+3
252,671	12,300	9,150	1,296E+1	1,296E+1	1,350E+3
252,871	12,300	9,150	1,296E+1	1,296E+1	1,350E+3
253,072	12,300	9,150	1,230E+1	1,230E+1	1,350E+3
253,272	12,300	9,150	1,230E+1	1,230E+1	1,350E+3
253,473	12,300	9,150	1,230E+1	1,230E+1	1,350E+3
253,674	12,300	9,150	1,230E+1	1,230E+1	1,350E+3
253,874	12,620	9,200	1,230E+1	9,195E+0	1,350E+3
254,074	12,620	9,200	1,230E+1	9,195E+0	1,350E+3
254,274	12,620	9,200	1,259E+1	1,259E+1	1,350E+3
254,474	12,620	9,200	1,259E+1	1,259E+1	1,350E+3
254,675	12,620	9,200	1,262E+1	1,262E+1	1,350E+3
254,874	12,620	9,200	1,262E+1	1,262E+1	1,350E+3
255,074	12,620	9,200	1,262E+1	1,262E+1	1,350E+3
255,276	12,620	9,200	1,262E+1	1,262E+1	1,350E+3
255,478	12,560	9,180	1,262E+1	1,262E+1	1,350E+3
255,678	12,560	9,180	1,262E+1	1,262E+1	1,350E+3
255,878	12,560	9,180	1,256E+1	1,256E+1	1,350E+3
256,078	12,560	9,180	1,256E+1	1,256E+1	1,350E+3
256,280	12,560	9,180	1,256E+1	1,256E+1	1,350E+3
256,479	12,870	9,150	1,256E+1	1,256E+1	1,350E+3
256,679	12,870	9,150	1,256E+1	1,256E+1	1,350E+3
256,879	12,870	9,150	1,287E+1	1,287E+1	1,350E+3
257,080	12,870	9,150	1,287E+1	1,287E+1	1,350E+3
257,280	12,870	9,150	1,287E+1	1,287E+1	1,350E+3
257,481	12,710	9,190	1,287E+1	1,287E+1	1,350E+3
257,681	12,710	9,190	1,287E+1	1,287E+1	1,350E+3
257,882	12,710	9,190	1,271E+1	1,271E+1	1,350E+3
258,082	12,710	9,190	1,271E+1	1,271E+1	1,350E+3
258,281	12,710	9,190	1,271E+1	1,271E+1	1,350E+3
258,482	13,010	9,160	1,271E+1	1,271E+1	1,350E+3
258,683	13,010	9,160	1,271E+1	1,271E+1	1,350E+3
258,883	13,010	9,160	1,301E+1	1,301E+1	1,350E+3
259,082	13,010	9,160	1,301E+1	1,301E+1	1,350E+3
259,283	13,010	9,160	1,301E+1	1,301E+1	1,350E+3
259,483	12,760	9,150	1,301E+1	9,181E+0	1,350E+3
259,685	12,760	9,150	1,301E+1	9,181E+0	1,350E+3
259,884	12,760	9,150	1,301E+1	9,181E+0	1,350E+3
260,084	12,760	9,150	1,259E+1	1,259E+1	1,350E+3
260,285	12,760	9,150	1,276E+1	1,276E+1	1,350E+3
260,486	12,760	9,150	1,276E+1	1,276E+1	1,350E+3
260,688	12,760	9,150	1,276E+1	1,276E+1	1,350E+3
260,888	12,760	9,150	1,276E+1	1,276E+1	1,350E+3
261,088	12,760	9,150	1,276E+1	1,276E+1	1,350E+3
261,287	12,270	9,190	1,276E+1	1,276E+1	1,350E+3
261,487	12,270	9,190	1,276E+1	1,276E+1	1,350E+3
261,688	12,270	9,190	1,227E+1	1,227E+1	1,350E+3
261,887	12,270	9,190	1,227E+1	1,227E+1	1,350E+3
262,087	12,270	9,190	1,227E+1	1,227E+1	1,350E+3
262,289	12,270	9,190	1,227E+1	1,227E+1	1,350E+3
262,489	13,760	9,190	1,227E+1	1,227E+1	1,350E+3
262,689	13,760	9,190	1,376E+1	1,376E+1	1,350E+3
262,892	13,760	9,190	1,376E+1	1,376E+1	1,350E+3
263,092	13,760	9,190	1,376E+1	1,376E+1	1,350E+3
263,292	13,760	9,190	1,376E+1	1,376E+1	1,350E+3
263,493	11,840	9,090	1,376E+1	1,376E+1	1,350E+3
263,694	11,840	9,090	1,184E+1	1,184E+1	1,350E+3
263,895	11,840	9,090	1,184E+1	1,184E+1	1,350E+3
264,095	11,840	9,090	1,184E+1	1,184E+1	1,350E+3
264,294	11,840	9,090	1,184E+1	1,184E+1	1,350E+3
264,495	13,060	9,200	1,184E+1	1,184E+1	1,350E+3
264,694	13,060	9,200	1,306E+1	1,306E+1	1,350E+3
264,895	13,060	9,200	1,306E+1	1,306E+1	1,350E+3
265,096	13,060	9,200	1,306E+1	1,306E+1	1,350E+3
265,295	13,060	9,200	1,306E+1	1,306E+1	1,350E+3
265,497	13,240	9,130	1,306E+1	9,172E+0	1,350E+3
265,697	13,240	9,130	1,306E+1	9,172E+0	1,350E+3
265,898	13,240	9,130	1,284E+1	1,284E+1	1,350E+3
266,097	13,240	9,130	1,284E+1	1,284E+1	1,350E+3
266,302	13,240	9,130	1,324E+1	1,324E+1	1,350E+3
266,502	13,240	9,130	1,324E+1	1,324E+1	1,350E+3
266,702	13,240	9,130	1,324E+1	1,324E+1	1,350E+3
266,901	13,240	9,130	1,324E+1	1,324E+1	1,350E+3
267,102	13,240	9,130	1,324E+1	1,324E+1	1,350E+3
267,303	12,500	9,160	1,324E+1	1,324E+1	1,350E+3
267,504	12,500	9,160	1,324E+1	1,324E+1	1,350E+3
267,703	12,500	9,160	1,250E+1	1,250E+1	1,350E+3
267,903	12,500	9,160	1,250E+1	1,250E+1	1,350E+3
268,103	13,230	9,110	1,250E+1	1,250E+1	1,350E+3
268,304	13,230	9,110	1,250E+1	1,250E+1	1,350E+3
268,504	13,230	9,110	1,323E+1	1,323E+1	1,350E+3
268,704	13,230	9,110	1,323E+1	1,323E+1	1,350E+3
268,905	13,230	9,110	1,323E+1	1,323E+1	1,350E+3
269,106	13,230	9,110	1,323E+1	1,323E+1	1,350E+3
269,307	12,320	9,160	1,323E+1	1,323E+1	1,350E+3
269,508	12,320	9,160	1,323E+1	1,323E+1	1,350E+3
269,708	12,320	9,160	1,232E+1	1,232E+1	1,350E+3
269,909	12,320	9,160	1,232E+1	1,232E+1	1,350E+3
270,111	13,430	9,100	1,232E+1	1,232E+1	1,350E+3
270,311	13,430	9,100	1,232E+1	1,232E+1	1,350E+3
270,511	13,430	9,100	1,343E+1	1,343E+1	1,350E+3
270,711	13,430	9,100	1,343E+1	1,343E+1	1,350E+3
270,911	13,430	9,100	1,343E+1	1,343E+1	1,350E+3
271,113	13,430	9,100	1,343E+1	1,343E+1	1,350E+3
271,314	12,300	9,140	1,343E+1	9,158E+0	1,350E+3
271,515	12,300	9,140	1,343E+1	9,158E+0	1,350E+3
271,715	12,300	9,140	1,343E+1	9,158E+0	1,350E+3
271,914	12,300	9,140	1,274E+1	1,274E+1	1,350E+3
272,115	12,300	9,140	1,230E+1	1,230E+1	1,350E+3
272,315	12,300	9,140	1,230E+1	1,230E+1	1,350E+3
272,514	12,300	9,140	1,230E+1	1,230E+1	1,350E+3
272,716	12,300	9,140	1,230E+1	1,230E+1	1,350E+3
272,917	12,300	9,140	1,230E+1	1,230E+1	1,350E+3
273,117	12,850	9,110	1,230E+1	1,230E+1	1,350E+3
273,318	12,850	9,110	1,285E+1	1,285E+1	1,350E+3
273,519	12,850	9,110	1,285E+1	1,285E+1	1,350E+3
273,720	12,850	9,110	1,285E+1	1,285E+1	1,350E+3
273,921	12,850	9,110	1,285E+1	1,285E+1	1,350E+3
274,121	12,950	9,150	1,285E+1	1,285E+1	1,350E+3
274,320	12,950	9,150	1,295E+1	1,295E+1	1,350E+3
274,521	12,950	9,150	1,295E+1	1,295E+1	1,350E+3
274,721	12,950	9,150	1,295E+1	1,295E+1	1,350E+3
274,922	12,950	9,150	1,295E+1	1,295E+1	1,350E+3
275,124	13,280	9,140	1,295E+1	1,295E+1	1,350E+3
275,324	13,280	9,140	1,328E+1	1,328E+1	1,350E+3
275,524	13,280	9,140	1,328E+1	1,328E+1	1,350E+3
275,725	13,280	9,140	1,328E+1	1,328E+1	1,350E+3
275,926	13,280	9,140	1,328E+1	1,328E+1	1,350E+3
276,126	12,580	9,140	1,328E+1	1,328E+1	1,350E+3
276,326	12,580	9,140	1,258E+1	1,258E+1	1,350E+3
276,526	12,580	9,140	1,258E+1	1,258E+1	1,350E+3
276,727	12,580	9,140	1,258E+1	1,258E+1	1,350E+3
276,928	12,580	9,140	1,258E+1	1,258E+1	1,350E+3
277,127	12,770	9,130	1,258E+1	9,158E+0	1,350E+3
277,328	12,770	9,130	1,258E+1	9,158E+0	1,350E+3
277,529	12,770	9,130	1,287E+1	1,287E+1	1,350E+3
277,729	12,770	9,130	1,287E+1	1,287E+1	1,350E+3
277,929	12,770	9,130	1,277E+1	1,277E+1	1,350E+3
278,129	12,770	9,130	1,277E+1	1,277E+1	1,350E+3
278,330	12,770	9,130	1,277E+1	1,277E+1	1,350E+3
278,530	12,770	9,130	1,277E+1	1,277E+1	1,350E+3
278,731	12,650	9,120	1,277E+1	1,277E+1	1,350E+3
278,931	12,650	9,120	1,277E+1	1,277E+1	1,350E+3
279,130	12,650	9,120	1,265E+1	1,265E+1	1,350E+3
279,330	12,650	9,120	1,265E+1	1,265E+1	1,350E+3
279,531	12,650	9,120	1,265E+1	1,265E+1	1,350E+3
279,731	12,520	9,160	1,265E+1	1,265E+1	1,350E+3
279,933	12,520	9,160	1,265E+1	1,265E+1	1,350E+3
280,134	12,520	9,160	1,252E+1	1,252E+1	1,350E+3
280,335	12,520	9,160	1,252E+1	1,252E+1	1,350E+3
280,535	12,520	9,160	1,252E+1	1,252E+1	1,350E+3
280,735	13,200	9,150	1,252E+1	1,252E+1	1,350E+3
280,934	13,200	9,150	1,252E+1	1,252E+1	1,350E+3
281,135	13,200	9,150	1,320E+1	1,320E+1	1,350E+3
281,334	13,200	9,150	1,320E+1	1,320E+1	1,350E+3
281,536	13,200	9,150	1,320E+1	1,320E+1	1,350E+3
281,735	12,750	9,110	1,320E+1	1,320E+1	1,350E+3
281,936	12,750	9,110	1,320E+1	1,320E+1	1,350E+3
282,135	12,750	9,110	1,275E+1	1,275E+1	1,350E+3
282,335	12,750	9,110	1,275E+1	1,275E+1	1,350E+3
282,536	12,750	9,110	1,275E+1	1,275E+1	1,350E+3
282,737	12,660	9,160	1,275E+1	9,151E+0	1,350E+3
282,936	12,660	9,160	1,275E+1	9,151E+0	1,350E+3
283,136	12,660	9,160	1,275E+1	9,151E+0	1,350E+3
283,337	12,660	9,160	1,256E+1	1,256E+1	1,350E+3
283,538	12,660	9,160	1,256E+1	1,256E+1	1,350E+3
283,739	12,660	9,160	1,266E+1	1,266E+1	1,350E+3
283,938	12,660	9,160	1,266E+1	1,266E+1	1,350E+3
284,138	12,660	9,160	1,266E+1	1,266E+1	1,350E+3
284,338	12,660	9,160	1,266E+1	1,266E+1	1,350E+3
284,538	12,660	9,160	1,266E+1	1,266E+1	1,350E+3
284,740	13,340	9,130	1,266E+1	1,266E+1	1,350E+3
284,941	13,340	9,130	1,334E+1	1,334E+1	1,350E+3
285,140	13,340	9,130	1,334E+1	1,334E+1	1,350E+3
285,340	13,340	9,130	1,334E+1	1,334E+1	1,350E+3
285,541	12,360	9,090	1,334E+1	1,334E+1	1,350E+3
285,743	12,360	9,090	1,334E+1	1,334E+1	1,350E+3
285,943	12,360	9,090	1,236E+1	1,236E+1	1,350E+3
286,144	12,360	9,090	1,236E+1	1,236E+1	1,350E+3
286,344	12,360	9,090	1,236E+1	1,236E+1	1,350E+3
286,545	11,800	9,120	1,236E+1	1,236E+1	1,350E+3
286,746	11,800	9,120	1,236E+1	1,236E+1	1,350E+3
286,947	11,800	9,120	1,180E+1	1,180E+1	1,350E+3
287,147	11,800	9,120	1,180E+1	1,180E+1	1,350E+3
287,348	11,800	9,120	1,180E+1	1,180E+1	1,350E+3
287,547	12,240	9,150	1,180E+1	1,180E+1	1,350E+3
287,748	12,240	9,150	1,180E+1	1,180E+1	1,350E+3
287,949	12,240	9,150	1,224E+1	1,224E+1	1,350E+3
288,149	12,240	9,150	1,224E+1	1,224E+1	1,350E+3
288,349	12,240	9,150	1,224E+1	1,224E+1	1,350E+3
288,549	11,980	9,140	1,224E+1	9,148E+0	1,350E+3
288,750	11,980	9,140	1,224E+1	9,148E+0	1,350E+3
288,950	11,980	9,140	1,224E+1	9,148E+0	1,350E+3
289,150	11,980	9,140	1,267E+1	1,267E+1	1,350E+3
289,350	11,980	9,140	1,198E+1	1,198E+1	1,350E+3
289,551	11,980	9,140	1,198E+1	1,198E+1	1,350E+3
289,751	11,980	9,140	1,198E+1	1,198E+1	1,350E+3
289,952	11,980	9,140	1,198E+1	1,198E+1	1,350E+3
290,151	11,980	9,140	1,198E+1	1,198E+1	1,350E+3
290,351	12,780	9,150	1,198E+1	1,198E+1	1,350E+3
290,551	12,780	9,150	1,198E+1	1,198E+1	1,350E+3
290,753	12,780	9,150	1,278E+1	1,278E+1	1,350E+3
290,954	12,780	9,150	1,278E+1	1,278E+1	1,350E+3
291,155	12,780	9,150	1,278E+1	1,278E+1	1,350E+3
291,356	12,960	9,130	1,278E+1	1,278E+1	1,350E+3
291,557	12,960	9,130	1,278E+1	1,278E+1	1,350E+3
291,757	12,960	9,130	1,296E+1	1,296E+1	1,350E+3
291,958	12,960	9,130	1,296E+1	1,296E+1	1,350E+3
292,159	12,960	9,130	1,296E+1	1,296E+1	1,350E+3
292,360	11,740	9,130	1,296E+1	1,296E+1	1,350E+3
292,562	11,740	9,130	1,296E+1	1,296E+1	1,350E+3
292,762	11,740	9,130	1,174E+1	1,174E+1	1,350E+3
292,963	11,740	9,130	1,174E+1	1,174E+1	1,350E+3
293,164	11,740	9,130	1,174E+1	1,174E+1	1,350E+3
293,365	12,320	9,120	1,174E+1	1,174E+1	1,350E+3
293,565	12,320	9,120	1,232E+1	1,232E+1	1,350E+3
293,765	12,320	9,120	1,232E+1	1,232E+1	1,350E+3
293,965	12,320	9,120	1,232E+1	1,232E+1	1,350E+3
294,165	12,320	9,120	1,232E+1	1,232E+1	1,350E+3
294,366	13,070	9,100	1,232E+1	9,142E+0	1,350E+3
294,566	13,070	9,100	1,232E+1	9,142E+0	1,350E+3
294,768	13,070	9,100	1,268E+1	1,268E+1	1,350E+3
294,969	13,070	9,100	1,268E+1	1,268E+1	1,350E+3
295,170	13,070	9,100	1,307E+1	1,307E+1	1,350E+3
295,369	13,070	9,100	1,307E+1	1,307E+1	1,350E+3
295,569	13,070	9,100	1,307E+1	1,307E+1	1,350E+3
295,771	13,070	9,100	1,307E+1	1,307E+1	1,350E+3
295,971	13,070	9,100	1,307E+1	1,307E+1	1,350E+3
296,172	13,210	9,100	1,307E+1	1,307E+1	1,350E+3
296,373	13,210	9,100	1,321E+1	1,321E+1	1,350E+3
296,573	13,210	9,100	1,321E+1	1,321E+1	1,350E+3
296,775	13,210	9,100	1,321E+1	1,321E+1	1,350E+3
296,974	13,210	9,100	1,321E+1	1,321E+1	1,350E+3
297,176	12,830	9,080	1,321E+1	1,321E+1	1,350E+3
297,376	12,830	9,080	1,283E+1	1,283E+1	1,350E+3
297,576	12,830	9,080	1,283E+1	1,283E+1	1,350E+3
297,778	12,830	9,080	1,283E+1	1,283E+1	1,350E+3
297,979	12,830	9,080	1,283E+1	1,283E+1	1,350E+3
298,179	12,720	9,120	1,283E+1	1,283E+1	1,350E+3
298,379	12,720	9,120	1,272E+1	1,272E+1	1,350E+3
298,581	12,720	9,120	1,272E+1	1,272E+1	1,350E+3
298,780	12,720	9,120	1,272E+1	1,272E+1	1,350E+3
298,981	12,600	9,110	1,272E+1	1,272E+1	1,350E+3
299,181	12,600	9,110	1,272E+1	1,272E+1	1,350E+3
299,382	12,600	9,110	1,260E+1	1,260E+1	1,350E+3
299,581	12,600	9,110	1,260E+1	1,260E+1	1,350E+3
299,783	12,600	9,110	1,260E+1	1,260E+1	1,350E+3
299,984	12,600	9,110	1,260E+1	1,260E+1	1,350E+3
300,183	13,220	9,140	1,260E+1	9,134E+0	1,350E+3
300,384	13,220	9,140	1,260E+1	9,134E+0	1,350E+3
300,585	13,220	9,140	1,272E+1	1,272E+1	1,350E+3
300,786	13,220	9,140	1,272E+1	1,272E+1	1,350E+3
300,987	13,220	9,140	1,322E+1	1,322E+1	1,350E+3
301,187	13,220	9,140	1,322E+1	1,322E+1	1,350E+3
301,389	13,220	9,140	1,322E+1	1,322E+1	1,350E+3
301,590	13,220	9,140	1,322E+1	1,322E+1	1,350E+3
301,791	13,220	9,140	1,322E+1	1,322E+1	1,350E+3
301,990	13,380	9,130	1,322E+1	1,322E+1	1,350E+3
302,192	13,380	9,130	1,322E+1	1,322E+1	1,350E+3
302,394	13,380	9,130	1,338E+1	1,338E+1	1,350E+3
302,596	13,380	9,130	1,338E+1	1,338E+1	1,350E+3
302,797	12,690	9,080	1,338E+1	1,338E+1	1,350E+3
302,997	12,690	9,080	1,338E+1	1,338E+1	1,350E+3
303,199	12,690	9,080	1,269E+1	1,269E+1	1,350E+3
303,398	12,690	9,080	1,269E+1	1,269E+1	1,350E+3
303,598	12,690	9,080	1,269E+1	1,269E+1	1,350E+3
303,798	12,690	9,080	1,269E+1	1,269E+1	1,350E+3
303,999	13,090	9,110	1,269E+1	1,269E+1	1,350E+3
304,199	13,090	9,110	1,269E+1	1,269E+1	1,350E+3
304,399	13,090	9,110	1,309E+1	1,309E+1	1,350E+3
304,600	13,090	9,110	1,309E+1	1,309E+1	1,350E+3
304,801	13,090	9,110	1,309E+1	1,309E+1	1,350E+3
305,003	12,300	9,090	1,309E+1	1,309E+1	1,350E+3
305,204	12,300	9,090	1,230E+1	1,230E+1	1,350E+3
305,405	12,300	9,090	1,230E+1	1,230E+1	1,350E+3
305,605	12,300	9,090	1,230E+1	1,230E+1	1,350E+3
305,805	12,300	9,090	1,230E+1	1,230E+1	1,350E+3
306,005	12,620	9,080	1,230E+1	9,117E+0	1,350E+3
306,205	12,620	9,080	1,230E+1	9,117E+0	1,350E+3
306,406	12,620	9,080	1,279E+1	1,279E+1	1,350E+3
306,608	12,620	9,080	1,279E+1	1,279E+1	1,350E+3
306,807	12,620	9,080	1,262E+1	1,262E+1	1,350E+3
307,008	12,620	9,080	1,262E+1	1,262E+1	1,350E+3
307,208	12,620	9,080	1,262E+1	1,262E+1	1,350E+3
307,408	12,620	9,080	1,262E+1	1,262E+1	1,350E+3
307,608	12,620	9,080	1,262E+1	1,262E+1	1,350E+3
307,809	13,420	9,110	1,262E+1	1,262E+1	1,350E+3
308,008	13,420	9,110	1,262E+1	1,262E+1	1,350E+3
308,208	13,420	9,110	1,342E+1	1,342E+1	1,350E+3
308,408	13,420	9,110	1,342E+1	1,342E+1	1,350E+3
308,610	13,420	9,110	1,342E+1	1,342E+1	1,350E+3
308,809	12,720	9,130	1,342E+1	1,342E+1	1,350E+3
309,009	12,720	9,130	1,342E+1	1,342E+1	1,350E+3
309,211	12,720	9,130	1,272E+1	1,272E+1	1,350E+3
309,411	12,720	9,130	1,272E+1	1,272E+1	1,350E+3
309,610	12,720	9,130	1,272E+1	1,272E+1	1,350E+3
309,810	12,020	9,040	1,272E+1	1,272E+1	1,350E+3
310,011	12,020	9,040	1,272E+1	1,272E+1	1,350E+3
310,212	12,020	9,040	1,202E+1	1,202E+1	1,350E+3
310,412	12,020	9,040	1,202E+1	1,202E+1	1,350E+3
310,615	12,020	9,040	1,202E+1	1,202E+1	1,350E+3
310,815	13,020	9,090	1,202E+1	1,202E+1	1,350E+3
311,014	13,020	9,090	1,302E+1	1,302E+1	1,350E+3
311,216	13,020	9,090	1,302E+1	1,302E+1	1,350E+3
311,417	13,020	9,090	1,302E+1	1,302E+1	1,350E+3
311,617	13,020	9,090	1,302E+1	1,302E+1	1,350E+3
311,817	12,100	9,110	1,302E+1	9,118E+0	1,350E+3
312,018	12,100	9,110	1,302E+1	9,118E+0	1,350E+3
312,219	12,100	9,110	1,262E+1	1,262E+1	1,350E+3
312,419	12,100	9,110	1,262E+1	1,262E+1	1,350E+3
312,621	12,100	9,110	1,210E+1	1,210E+1	1,350E+3
312,821	12,100	9,110	1,210E+1	1,210E+1	1,350E+3
313,020	12,100	9,110	1,210E+1	1,210E+1	1,350E+3
313,221	12,100	9,110	1,210E+1	1,210E+1	1,350E+3
313,420	12,100	9,110	1,210E+1	1,210E+1	1,350E+3
313,621	12,460	9,060	1,210E+1	1,210E+1	1,350E+3
313,823	12,460	9,060	1,246E+1	1,246E+1	1,350E+3
314,023	12,460	9,060	1,246E+1	1,246E+1	1,350E+3
314,222	12,460	9,060	1,246E+1	1,246E+1	1,350E+3
314,424	12,460	9,060	1,246E+1	1,246E+1	1,350E+3
314,624	13,090	9,130	1,246E+1	1,246E+1	1,350E+3
314,823	13,090	9,130	1,309E+1	1,309E+1	1,350E+3
315,025	13,090	9,130	1,309E+1	1,309E+1	1,350E+3
315,225	13,090	9,130	1,309E+1	1,309E+1	1,350E+3
315,426	13,090	9,130	1,309E+1	1,309E+1	1,350E+3
315,626	12,870	9,080	1,309E+1	1,309E+1	1,350E+3
315,827	12,870	9,080	1,287E+1	1,287E+1	1,350E+3
316,026	12,870	9,080	1,287E+1	1,287E+1	1,350E+3
316,226	12,870	9,080	1,287E+1	1,287E+1	1,350E+3
316,427	12,890	9,080	1,287E+1	1,287E+1	1,350E+3
316,629	12,890	9,080	1,287E+1	1,287E+1	1,350E+3
316,830	12,890	9,080	1,289E+1	1,289E+1	1,350E+3
317,031	12,890	9,080	1,289E+1	1,289E+1	1,350E+3
317,231	12,890	9,080	1,289E+1	1,289E+1	1,350E+3
317,431	12,890	9,080	1,289E+1	1,289E+1	1,350E+3
317,632	12,730	9,100	1,289E+1	9,108E+0	1,350E+3
317,833	12,730	9,100	1,289E+1	9,108E+0	1,350E+3
318,032	12,730	9,100	1,266E+1	1,266E+1	1,350E+3
318,233	12,730	9,100	1,273E+1	1,273E+1	1,350E+3
318,436	12,730	9,100	1,273E+1	1,273E+1	1,350E+3
318,636	12,730	9,100	1,273E+1	1,273E+1	1,350E+3
318,838	12,730	9,100	1,273E+1	1,273E+1	1,350E+3
319,038	12,730	9,100	1,273E+1	1,273E+1	1,350E+3
319,239	12,180	9,080	1,273E+1	1,273E+1	1,350E+3
319,440	12,180	9,080	1,273E+1	1,273E+1	1,350E+3
319,641	12,180	9,080	1,218E+1	1,218E+1	1,350E+3
319,841	12,180	9,080	1,218E+1	1,218E+1	1,350E+3
320,041	12,180	9,080	1,218E+1	1,218E+1	1,350E+3
320,240	13,290	9,110	1,218E+1	1,218E+1	1,350E+3
320,441	13,290	9,110	1,218E+1	1,218E+1	1,350E+3
320,640	13,290	9,110	1,329E+1	1,329E+1	1,350E+3
320,842	13,290	9,110	1,329E+1	1,329E+1	1,350E+3
321,044	13,290	9,110	1,329E+1	1,329E+1	1,350E+3
321,245	13,030	9,070	1,329E+1	1,329E+1	1,350E+3
321,445	13,030	9,070	1,329E+1	1,329E+1	1,350E+3
321,646	13,030	9,070	1,303E+1	1,303E+1	1,350E+3
321,846	13,030	9,070	1,303E+1	1,303E+1	1,350E+3
322,047	13,030	9,070	1,303E+1	1,303E+1	1,350E+3
322,247	12,250	9,080	1,303E+1	1,303E+1	1,350E+3
322,447	12,250	9,080	1,303E+1	1,303E+1	1,350E+3
322,647	12,250	9,080	1,225E+1	1,225E+1	1,350E+3
322,847	12,250	9,080	1,225E+1	1,225E+1	1,350E+3
323,049	12,250	9,080	1,225E+1	1,225E+1	1,350E+3
323,250	12,240	9,070	1,225E+1	9,102E+0	1,350E+3
323,452	12,240	9,070	1,225E+1	9,102E+0	1,350E+3
323,652	12,240	9,070	1,259E+1	1,259E+1	1,350E+3
323,853	12,240	9,070	1,259E+1	1,259E+1	1,350E+3
324,052	12,240	9,070	1,224E+1	1,224E+1	1,350E+3
324,252	12,240	9,070	1,224E+1	1,224E+1	1,350E+3
324,454	12,240	9,070	1,224E+1	1,224E+1	1,350E+3
324,656	12,240	9,070	1,224E+1	1,224E+1	1,350E+3
324,856	12,240	9,070	1,224E+1	1,224E+1	1,350E+3
325,058	12,710	9,050	1,224E+1	1,224E+1	1,350E+3
325,258	12,710	9,050	1,224E+1	1,224E+1	1,350E+3
325,458	12,710	9,050	1,271E+1	1,271E+1	1,350E+3
325,658	12,710	9,050	1,271E+1	1,271E+1	1,350E+3
325,858	12,710	9,050	1,271E+1	1,271E+1	1,350E+3
326,060	13,330	9,090	1,271E+1	1,271E+1	1,350E+3
326,260	13,330	9,090	1,333E+1	1,333E+1	1,350E+3
326,462	13,330	9,090	1,333E+1	1,333E+1	1,350E+3
326,662	13,330	9,090	1,333E+1	1,333E+1	1,350E+3
326,864	13,330	9,090	1,333E+1	1,333E+1	1,350E+3
327,063	12,270	9,100	1,333E+1	1,333E+1	1,350E+3
327,263	12,270	9,100	1,227E+1	1,227E+1	1,350E+3
327,463	12,270	9,100	1,227E+1	1,227E+1	1,350E+3
327,663	12,270	9,100	1,227E+1	1,227E+1	1,350E+3
327,864	12,270	9,100	1,227E+1	1,227E+1	1,350E+3
328,065	12,750	9,080	1,227E+1	1,227E+1	1,350E+3
328,264	12,750	9,080	1,275E+1	1,275E+1	1,350E+3
328,466	12,750	9,080	1,275E+1	1,275E+1	1,350E+3
328,665	12,750	9,080	1,275E+1	1,275E+1	1,350E+3
328,865	12,750	9,080	1,275E+1	1,275E+1	1,350E+3
329,065	12,720	9,080	1,275E+1	9,097E+0	1,350E+3
329,265	12,720	9,080	1,275E+1	9,097E+0	1,350E+3
329,465	12,720	9,080	1,262E+1	1,262E+1	1,350E+3
329,667	12,720	9,080	1,262E+1	1,262E+1	1,350E+3
329,868	12,720	9,080	1,272E+1	1,272E+1	1,350E+3
330,069	12,720	9,080	1,272E+1	1,272E+1	1,350E+3
330,269	12,720	9,080	1,272E+1	1,272E+1	1,350E+3
330,470	12,720	9,080	1,272E+1	1,272E+1	1,350E+3
330,670	12,720	9,080	1,272E+1	1,272E+1	1,350E+3
330,872	12,540	9,050	1,272E+1	1,272E+1	1,350E+3
331,072	12,540	9,050	1,254E+1	1,254E+1	1,350E+3
331,274	12,540	9,050	1,254E+1	1,254E+1	1,350E+3
331,477	12,540	9,050	1,254E+1	1,254E+1	1,350E+3
331,677	12,510	9,050	1,254E+1	1,254E+1	1,350E+3
331,879	12,510	9,050	1,254E+1	1,254E+1	1,350E+3
332,080	12,510	9,050	1,251E+1	1,251E+1	1,350E+3
332,281	12,510	9,050	1,251E+1	1,251E+1	1,350E+3
332,481	12,510	9,050	1,251E+1	1,251E+1	1,350E+3
332,683	12,570	9,110	1,251E+1	1,251E+1	1,350E+3
332,884	12,570	9,110	1,251E+1	1,251E+1	1,350E+3
333,084	12,570	9,110	1,257E+1	1,257E+1	1,350E+3
333,285	12,570	9,110	1,257E+1	1,257E+1	1,350E+3
333,486	12,570	9,110	1,257E+1	1,257E+1	1,350E+3
333,688	11,880	9,020	1,257E+1	1,257E+1	1,350E+3
333,889	11,880	9,020	1,257E+1	1,257E+1	1,350E+3
334,089	11,880	9,020	1,188E+1	1,188E+1	1,350E+3
334,288	11,880	9,020	1,188E+1	1,188E+1	1,350E+3
334,490	11,880	9,020	1,188E+1	1,188E+1	1,350E+3
334,690	11,880	9,020	1,188E+1	1,188E+1	1,350E+3
334,890	11,670	9,080	1,188E+1	9,079E+0	1,350E+3
335,089	11,670	9,080	1,188E+1	9,079E+0	1,350E+3
335,291	11,670	9,080	1,254E+1	1,254E+1	1,350E+3
335,490	11,670	9,080	1,167E+1	1,167E+1	1,350E+3
335,690	11,670	9,080	1,167E+1	1,167E+1	1,350E+3
335,890	11,670	9,080	1,167E+1	1,167E+1	1,350E+3
336,090	11,670	9,080	1,167E+1	1,167E+1	1,350E+3
336,292	11,670	9,080	1,167E+1	1,167E+1	1,350E+3
336,493	13,200	9,020	1,167E+1	1,167E+1	1,350E+3
336,694	13,200	9,020	1,167E+1	1,167E+1	1,350E+3
336,896	13,200	9,020	1,320E+1	1,320E+1	1,350E+3
337,097	13,200	9,020	1,320E+1	1,320E+1	1,350E+3
337,300	13,200	9,020	1,320E+1	1,320E+1	1,350E+3
337,500	12,800	9,100	1,320E+1	1,320E+1	1,350E+3
337,701	12,800	9,100	1,320E+1	1,320E+1	1,350E+3
337,900	12,800	9,100	1,280E+1	1,280E+1	1,350E+3
338,101	12,800	9,100	1,280E+1	1,280E+1	1,350E+3
338,301	12,800	9,100	1,280E+1	1,280E+1	1,350E+3
338,501	12,320	9,040	1,280E+1	1,280E+1	1,350E+3
338,704	12,320	9,040	1,280E+1	1,280E+1	1,350E+3
338,904	12,320	9,040	1,232E+1	1,232E+1	1,350E+3
339,104	12,320	9,040	1,232E+1	1,232E+1	1,350E+3
339,305	12,320	9,040	1,232E+1	1,232E+1	1,350E+3
339,505	12,070	9,060	1,232E+1	1,232E+1	1,350E+3
339,704	12,070	9,060	1,207E+1	1,207E+1	1,350E+3
339,904	12,070	9,060	1,207E+1	1,207E+1	1,350E+3
340,105	12,070	9,060	1,207E+1	1,207E+1	1,350E+3
340,306	12,070	9,060	1,207E+1	1,207E+1	1,350E+3
340,506	12,310	9,060	1,207E+1	9,070E+0	1,350E+3
340,708	12,310	9,060	1,207E+1	9,070E+0	1,350E+3
340,909	12,310	9,060	1,269E+1	1,269E+1	1,350E+3
341,108	12,310	9,060	1,269E+1	1,269E+1	1,350E+3
341,309	12,310	9,060	1,231E+1	1,231E+1	1,350E+3
341,509	12,310	9,060	1,231E+1	1,231E+1	1,350E+3
341,710	12,310	9,060	1,231E+1	1,231E+1	1,350E+3
341,909	12,310	9,060	1,231E+1	1,231E+1	1,350E+3
342,110	12,310	9,060	1,231E+1	1,231E+1	1,350E+3
342,312	11,960	9,080	1,231E+1	1,231E+1	1,350E+3
342,514	11,960	9,080	1,196E+1	1,196E+1	1,350E+3
342,713	11,960	9,080	1,196E+1	1,196E+1	1,350E+3
342,913	11,960	9,080	1,196E+1	1,196E+1	1,350E+3
343,113	11,960	9,080	1,196E+1	1,196E+1	1,350E+3
343,316	12,080	9,050	1,196E+1	1,196E+1	1,350E+3
343,516	12,080	9,050	1,208E+1	1,208E+1	1,350E+3
343,716	12,080	9,050	1,208E+1	1,208E+1	1,350E+3
343,917	12,080	9,050	1,208E+1	1,208E+1	1,350E+3
344,118	12,080	9,050	1,208E+1	1,208E+1	1,350E+3
344,319	12,930	9,040	1,208E+1	1,208E+1	1,350E+3
344,519	12,930	9,040	1,293E+1	1,293E+1	1,350E+3
344,719	12,930	9,040	1,293E+1	1,293E+1	1,350E+3
344,918	12,930	9,040	1,293E+1	1,293E+1	1,350E+3
345,119	12,380	9,060	1,293E+1	1,293E+1	1,350E+3
345,319	12,380	9,060	1,293E+1	1,293E+1	1,350E+3
345,520	12,380	9,060	1,238E+1	1,238E+1	1,350E+3
345,720	12,380	9,060	1,238E+1	1,238E+1	1,350E+3
345,921	12,380	9,060	1,238E+1	1,238E+1	1,350E+3
346,121	12,380	9,060	1,238E+1	1,238E+1	1,350E+3
346,322	12,980	9,080	1,238E+1	9,087E+0	1,350E+3
346,522	12,980	9,080	1,238E+1	9,087E+0	1,350E+3
346,722	12,980	9,080	1,244E+1	1,244E+1	1,350E+3
346,923	12,980	9,080	1,298E+1	1,298E+1	1,350E+3
347,123	12,980	9,080	1,298E+1	1,298E+1	1,350E+3
347,324	12,980	9,080	1,298E+1	1,298E+1	1,350E+3
347,523	12,980	9,080	1,298E+1	1,298E+1	1,350E+3
347,724	12,980	9,080	1,298E+1	1,298E+1	1,350E+3
347,924	12,980	9,080	1,298E+1	1,298E+1	1,350E+3
348,125	12,600	9,090	1,298E+1	1,298E+1	1,350E+3
348,325	12,600	9,090	1,298E+1	1,298E+1	1,350E+3
348,525	12,600	9,090	1,260E+1	1,260E+1	1,350E+3
348,727	12,460	9,030	1,260E+1	1,260E+1	1,350E+3
348,926	12,460	9,030	1,260E+1	1,260E+1	1,350E+3
349,127	12,460	9,030	1,246E+1	1,246E+1	1,350E+3
349,328	12,460	9,030	1,246E+1	1,246E+1	1,350E+3
349,530	12,460	9,030	1,246E+1	1,246E+1	1,350E+3
349,730	12,460	9,030	1,246E+1	1,246E+1	1,350E+3
349,929	13,280	9,040	1,246E+1	1,246E+1	1,350E+3
350,130	13,280	9,040	1,246E+1	1,246E+1	1,350E+3
350,329	13,280	9,040	1,328E+1	1,328E+1	1,350E+3
350,531	13,280	9,040	1,328E+1	1,328E+1	1,350E+3
350,731	13,280	9,040	1,328E+1	1,328E+1	1,350E+3
350,933	12,260	9,060	1,328E+1	1,328E+1	1,350E+3
351,133	12,260	9,060	1,328E+1	1,328E+1	1,350E+3
351,335	12,260	9,060	1,226E+1	1,226E+1	1,350E+3
351,536	12,260	9,060	1,226E+1	1,226E+1	1,350E+3
351,736	12,260	9,060	1,226E+1	1,226E+1	1,350E+3
351,936	12,850	9,060	1,226E+1	9,072E+0	1,350E+3
352,135	12,850	9,060	1,226E+1	9,072E+0	1,350E+3
352,337	12,850	9,060	1,226E+1	9,072E+0	1,350E+3
352,537	12,850	9,060	1,261E+1	1,261E+1	1,350E+3
352,738	12,850	9,060	1,285E+1	1,285E+1	1,350E+3
352,939	12,850	9,060	1,285E+1	1,285E+1	1,350E+3
353,139	12,850	9,060	1,285E+1	1,285E+1	1,350E+3
353,340	12,850	9,060	1,285E+1	1,285E+1	1,350E+3
353,541	12,850	9,060	1,285E+1	1,285E+1	1,350E+3
353,741	12,670	9,050	1,285E+1	1,285E+1	1,350E+3
353,941	12,670	9,050	1,285E+1	1,285E+1	1,350E+3
354,143	12,670	9,050	1,267E+1	1,267E+1	1,350E+3
354,343	12,670	9,050	1,267E+1	1,267E+1	1,350E+3
354,544	12,670	9,050	1,267E+1	1,267E+1	1,350E+3
354,744	12,120	9,020	1,267E+1	1,267E+1	1,350E+3
354,945	12,120	9,020	1,212E+1	1,212E+1	1,350E+3
355,145	12,120	9,020	1,212E+1	1,212E+1	1,350E+3
355,345	12,120	9,020	1,212E+1	1,212E+1	1,350E+3
355,545	12,120	9,020	1,212E+1	1,212E+1	1,350E+3
355,746	12,110	9,030	1,212E+1	1,212E+1	1,350E+3
355,946	12,110	9,030	1,211E+1	1,211E+1	1,350E+3
356,146	12,110	9,030	1,211E+1	1,211E+1	1,350E+3
356,347	12,110	9,030	1,211E+1	1,211E+1	1,350E+3
356,547	12,110	9,030	1,211E+1	1,211E+1	1,350E+3
356,749	12,830	9,030	1,211E+1	1,211E+1	1,350E+3
356,948	12,830	9,030	1,283E+1	1,283E+1	1,350E+3
357,148	12,830	9,030	1,283E+1	1,283E+1	1,350E+3
357,349	12,830	9,030	1,283E+1	1,283E+1	1,350E+3
357,549	12,830	9,030	1,283E+1	1,283E+1	1,350E+3
357,749	12,000	9,040	1,283E+1	9,054E+0	1,350E+3
357,949	12,000	9,040	1,283E+1	9,054E+0	1,350E+3
358,151	12,000	9,040	1,253E+1	1,253E+1	1,350E+3
358,352	12,000	9,040	1,253E+1	1,253E+1	1,350E+3
358,552	12,000	9,040	1,200E+1	1,200E+1	1,350E+3
358,754	12,000	9,040	1,200E+1	1,200E+1	1,350E+3
358,956	12,000	9,040	1,200E+1	1,200E+1	1,350E+3
359,155	12,000	9,040	1,200E+1	1,200E+1	1,350E+3
359,356	12,000	9,040	1,200E+1	1,200E+1	1,350E+3
359,558	13,620	9,060	1,200E+1	1,200E+1	1,350E+3
359,758	13,620	9,060	1,200E+1	1,200E+1	1,350E+3
359,960	13,620	9,060	1,362E+1	1,362E+1	1,350E+3
360,159	13,620	9,060	1,362E+1	1,362E+1	1,350E+3
360,360	13,620	9,060	1,362E+1	1,362E+1	1,350E+3
360,560	12,270	9,040	1,362E+1	1,362E+1	1,350E+3
360,762	12,270	9,040	1,362E+1	1,362E+1	1,350E+3
360,962	12,270	9,040	1,227E+1	1,227E+1	1,350E+3
361,163	12,270	9,040	1,227E+1	1,227E+1	1,350E+3
361,364	12,270	9,040	1,227E+1	1,227E+1	1,350E+3
361,564	12,460	9,000	1,227E+1	1,227E+1	1,350E+3
361,765	12,460	9,000	1,246E+1	1,246E+1	1,350E+3
361,966	12,460	9,000	1,246E+1	1,246E+1	1,350E+3
362,167	12,460	9,000	1,246E+1	1,246E+1	1,350E+3
362,367	12,460	9,000	1,246E+1	1,246E+1	1,350E+3
362,567	12,520	8,990	1,246E+1	1,246E+1	1,350E+3
362,767	12,520	8,990	1,252E+1	1,252E+1	1,350E+3
362,966	12,520	8,990	1,252E+1	1,252E+1	1,350E+3
363,168	12,520	8,990	1,252E+1	1,252E+1	1,350E+3
363,368	12,520	8,990	1,252E+1	1,252E+1	1,350E+3
363,569	11,970	9,060	1,252E+1	9,050E+0	1,350E+3
363,769	11,970	9,060	1,252E+1	9,050E+0	1,350E+3
363,970	11,970	9,060	1,265E+1	1,265E+1	1,350E+3
364,172	11,970	9,060	1,265E+1	1,265E+1	1,350E+3
364,371	11,970	9,060	1,197E+1	1,197E+1	1,350E+3
364,571	11,970	9,060	1,197E+1	1,197E+1	1,350E+3
364,771	11,970	9,060	1,197E+1	1,197E+1	1,350E+3
364,973	11,970	9,060	1,197E+1	1,197E+1	1,350E+3
365,174	11,970	9,060	1,197E+1	1,197E+1	1,350E+3
365,373	12,410	9,010	1,197E+1	1,197E+1	1,350E+3
365,575	12,410	9,010	1,241E+1	1,241E+1	1,350E+3
365,775	12,410	9,010	1,241E+1	1,241E+1	1,350E+3
365,977	12,410	9,010	1,241E+1	1,241E+1	1,350E+3
366,176	12,410	9,010	1,241E+1	1,241E+1	1,350E+3
366,376	12,280	9,070	1,241E+1	1,241E+1	1,350E+3
366,579	12,280	9,070	1,228E+1	1,228E+1	1,350E+3
366,779	12,280	9,070	1,228E+1	1,228E+1	1,350E+3
366,979	12,280	9,070	1,228E+1	1,228E+1	1,350E+3
367,179	12,560	9,020	1,228E+1	1,228E+1	1,350E+3
367,380	12,560	9,020	1,228E+1	1,228E+1	1,350E+3
367,582	12,560	9,020	1,256E+1	1,256E+1	1,350E+3
367,782	12,560	9,020	1,256E+1	1,256E+1	1,350E+3
367,986	12,560	9,020	1,256E+1	1,256E+1	1,350E+3
368,185	12,470	9,060	1,256E+1	1,256E+1	1,350E+3
368,386	12,470	9,060	1,256E+1	1,256E+1	1,350E+3
368,586	12,470	9,060	1,247E+1	1,247E+1	1,350E+3
368,787	12,470	9,060	1,247E+1	1,247E+1	1,350E+3
368,987	12,470	9,060	1,247E+1	1,247E+1	1,350E+3
369,187	12,820	8,990	1,247E+1	9,057E+0	1,350E+3
369,387	12,820	8,990	1,247E+1	9,057E+0	1,350E+3
369,588	12,820	8,990	1,247E+1	9,057E+0	1,350E+3
369,788	12,820	8,990	1,262E+1	1,262E+1	1,350E+3
369,988	12,820	8,990	1,282E+1	1,282E+1	1,350E+3
370,189	12,820	8,990	1,282E+1	1,282E+1	1,350E+3
370,390	12,820	8,990	1,282E+1	1,282E+1	1,350E+3
370,591	12,820	8,990	1,282E+1	1,282E+1	1,350E+3
370,791	12,820	8,990	1,282E+1	1,282E+1	1,350E+3
370,990	12,560	8,990	1,282E+1	1,282E+1	1,350E+3
371,190	12,560	8,990	1,282E+1	1,282E+1	1,350E+3
371,393	12,560	8,990	1,256E+1	1,256E+1	1,350E+3
371,593	12,560	8,990	1,256E+1	1,256E+1	1,350E+3
371,794	12,560	8,990	1,256E+1	1,256E+1	1,350E+3
371,996	12,560	8,990	1,256E+1	1,256E+1	1,350E+3
372,195	13,020	9,040	1,256E+1	1,256E+1	1,350E+3
372,395	13,020	9,040	1,256E+1	1,256E+1	1,350E+3
372,596	13,020	9,040	1,302E+1	1,302E+1	1,350E+3
372,797	13,020	9,040	1,302E+1	1,302E+1	1,350E+3
372,997	12,620	9,010	1,302E+1	1,302E+1	1,350E+3
373,197	12,620	9,010	1,302E+1	1,302E+1	1,350E+3
373,396	12,620	9,010	1,262E+1	1,262E+1	1,350E+3
373,598	12,620	9,010	1,262E+1	1,262E+1	1,350E+3
373,798	12,620	9,010	1,262E+1	1,262E+1	1,350E+3
373,997	12,620	9,010	1,262E+1	1,262E+1	1,350E+3
374,197	12,270	9,020	1,262E+1	1,262E+1	1,350E+3
374,397	12,270	9,020	1,262E+1	1,262E+1	1,350E+3
374,600	12,270	9,020	1,227E+1	1,227E+1	1,350E+3
374,799	12,270	9,020	1,227E+1	1,227E+1	1,350E+3
374,999	12,410	9,050	1,227E+1	9,044E+0	1,350E+3
375,201	12,410	9,050	1,227E+1	9,044E+0	1,350E+3
375,401	12,410	9,050	1,227E+1	9,044E+0	1,350E+3
375,601	12,410	9,050	1,253E+1	1,253E+1	1,350E+3
375,801	12,410	9,050	1,241E+1	1,241E+1	1,350E+3
376,003	12,410	9,050	1,241E+1	1,241E+1	1,350E+3
376,202	12,410	9,050	1,241E+1	1,241E+1	1,350E+3
376,404	12,410	9,050	1,241E+1	1,241E+1	1,350E+3
376,604	12,410	9,050	1,241E+1	1,241E+1	1,350E+3
376,604	12,020	9,000	1,241E+1	1,241E+1	1,350E+3
376,805	12,020	9,000	1,241E+1	1,241E+1	1,350E+3
377,006	12,020	9,000	1,202E+1	1,202E+1	1,350E+3
377,206	12,020	9,000	1,202E+1	1,202E+1	1,350E+3
377,407	12,020	9,000	1,202E+1	1,202E+1	1,350E+3
377,609	12,020	9,000	1,202E+1	1,202E+1	1,350E+3
377,810	12,230	9,010	1,202E+1	1,202E+1	1,350E+3
378,012	12,230	9,010	1,223E+1	1,223E+1	1,350E+3
378,412	12,230	9,010	1,223E+1	1,223E+1	1,350E+3
378,412	12,750	9,050	1,223E+1	1,223E+1	1,350E+3
378,612	12,750	9,050	1,223E+1	1,223E+1	1,350E+3
378,812	12,750	9,050	1,275E+1	1,275E+1	1,350E+3
379,013	12,750	9,050	1,275E+1	1,275E+1	1,350E+3
379,213	12,750	9,050	1,275E+1	1,275E+1	1,350E+3
379,414	12,750	9,050	1,275E+1	1,275E+1	1,350E+3
379,616	12,880	8,980	1,275E+1	1,275E+1	1,350E+3
379,815	12,880	8,980	1,275E+1	1,275E+1	1,350E+3
380,018	12,880	8,980	1,288E+1	1,288E+1	1,350E+3
380,217	12,880	8,980	1,288E+1	1,288E+1	1,350E+3
380,417	12,880	8,980	1,288E+1	9,033E+0	1,350E+3
380,617	12,880	8,980	1,288E+1	9,033E+0	1,350E+3
380,818	11,880	9,020	1,232E+1	1,232E+1	1,350E+3
381,019	11,880	9,020	1,232E+1	1,232E+1	1,350E+3
381,219	11,880	9,020	1,188E+1	1,188E+1	1,350E+3
381,418	11,880	9,020	1,188E+1	1,188E+1	1,350E+3
381,618	11,880	9,020	1,188E+1	1,188E+1	1,350E+3
381,819	11,880	9,020	1,188E+1	1,188E+1	1,350E+3
382,018	11,880	9,020	1,188E+1	1,188E+1	1,350E+3
382,220	12,090	9,040	1,188E+1	1,188E+1	1,350E+3
382,421	12,090	9,040	1,209E+1	1,209E+1	1,350E+3
382,621	12,090	9,040	1,209E+1	1,209E+1	1,350E+3
382,821	12,090	9,040	1,209E+1	1,209E+1	1,350E+3
383,022	12,540	9,030	1,209E+1	1,209E+1	1,350E+3
383,223	12,540	9,030	1,209E+1	1,209E+1	1,350E+3
383,423	12,540	9,030	1,254E+1	1,254E+1	1,350E+3
383,624	12,540	9,030	1,254E+1	1,254E+1	1,350E+3
383,824	12,540	9,030	1,254E+1	1,254E+1	1,350E+3
384,025	12,060	9,000	1,254E+1	1,254E+1	1,350E+3
384,227	12,060	9,000	1,254E+1	1,254E+1	1,350E+3
384,426	12,060	9,000	1,206E+1	1,206E+1	1,350E+3
384,627	12,060	9,000	1,206E+1	1,206E+1	1,350E+3
384,829	12,060	9,000	1,206E+1	1,206E+1	1,350E+3
385,029	13,050	9,030	1,206E+1	1,206E+1	1,350E+3
385,229	13,050	9,030	1,206E+1	1,206E+1	1,350E+3
385,430	13,050	9,030	1,305E+1	1,305E+1	1,350E+3
385,630	13,050	9,030	1,305E+1	1,305E+1	1,350E+3
385,830	13,050	9,030	1,305E+1	1,305E+1	1,350E+3
386,031	13,050	9,030	1,305E+1	1,305E+1	1,350E+3
386,231	12,470	9,020	1,305E+1	9,034E+0	1,350E+3
386,431	12,470	9,020	1,305E+1	9,034E+0	1,350E+3
386,632	12,470	9,020	1,259E+1	1,259E+1	1,350E+3
386,833	12,470	9,020	1,259E+1	1,259E+1	1,350E+3
387,034	12,470	9,020	1,247E+1	1,247E+1	1,350E+3
387,234	12,470	9,020	1,247E+1	1,247E+1	1,350E+3
387,434	12,470	9,020	1,247E+1	1,247E+1	1,350E+3
387,637	12,470	9,020	1,247E+1	1,247E+1	1,350E+3
387,837	12,470	9,010	1,247E+1	1,247E+1	1,350E+3
388,038	12,470	9,010	1,247E+1	1,247E+1	1,350E+3
388,238	12,470	9,010	1,247E+1	1,247E+1	1,350E+3
388,438	12,470	9,010	1,247E+1	1,247E+1	1,350E+3
388,638	12,470	9,010	1,247E+1	1,247E+1	1,350E+3
388,838	13,600	9,050	1,247E+1	1,247E+1	1,350E+3
389,040	13,600	9,050	1,360E+1	1,360E+1	1,350E+3
389,240	13,600	9,050	1,360E+1	1,360E+1	1,350E+3
389,440	13,600	9,050	1,360E+1	1,360E+1	1,350E+3
389,642	13,600	9,050	1,360E+1	1,360E+1	1,350E+3
389,843	13,600	9,050	1,360E+1	1,360E+1	1,350E+3
390,042	12,800	8,990	1,360E+1	1,360E+1	1,350E+3
390,243	12,800	8,990	1,280E+1	1,280E+1	1,350E+3
390,444	12,800	8,990	1,280E+1	1,280E+1	1,350E+3
390,643	12,800	8,990	1,280E+1	1,280E+1	1,350E+3
390,844	12,800	8,990	1,280E+1	1,280E+1	1,350E+3
391,044	12,120	9,040	1,280E+1	1,280E+1	1,350E+3
391,245	12,120	9,040	1,212E+1	1,212E+1	1,350E+3
391,446	12,120	9,040	1,212E+1	1,212E+1	1,350E+3
391,647	12,120	9,040	1,212E+1	1,212E+1	1,350E+3
391,847	12,120	9,040	1,212E+1	1,212E+1	1,350E+3
392,047	12,680	9,030	1,212E+1	9,040E+0	1,350E+3
392,247	12,680	9,030	1,212E+1	9,040E+0	1,350E+3
392,447	12,680	9,030	1,254E+1	1,254E+1	1,350E+3
392,649	12,680	9,030	1,254E+1	1,254E+1	1,350E+3
392,849	12,680	9,030	1,268E+1	1,268E+1	1,350E+3
393,052	12,680	9,030	1,268E+1	1,268E+1	1,350E+3
393,252	12,680	9,030	1,268E+1	1,268E+1	1,350E+3
393,453	12,680	9,030	1,268E+1	1,268E+1	1,350E+3
393,654	12,680	9,030	1,268E+1	1,268E+1	1,350E+3
393,854	12,870	9,050	1,268E+1	1,268E+1	1,350E+3
394,055	12,870	9,050	1,287E+1	1,287E+1	1,350E+3
394,256	12,870	9,050	1,287E+1	1,287E+1	1,350E+3
394,456	12,870	9,050	1,287E+1	1,287E+1	1,350E+3
394,657	12,330	9,000	1,287E+1	1,287E+1	1,350E+3
394,857	12,330	9,000	1,287E+1	1,287E+1	1,350E+3
395,056	12,330	9,000	1,233E+1	1,233E+1	1,350E+3
395,256	12,330	9,000	1,233E+1	1,233E+1	1,350E+3
395,457	12,330	9,000	1,233E+1	1,233E+1	1,350E+3
395,658	12,020	9,010	1,233E+1	1,233E+1	1,350E+3
395,858	12,020	9,010	1,233E+1	1,233E+1	1,350E+3
396,058	12,020	9,010	1,202E+1	1,202E+1	1,350E+3
396,259	12,020	9,010	1,202E+1	1,202E+1	1,350E+3
396,459	12,020	9,010	1,202E+1	1,202E+1	1,350E+3
396,660	12,300	8,990	1,202E+1	1,202E+1	1,350E+3
396,860	12,300	8,990	1,202E+1	1,202E+1	1,350E+3
397,060	12,300	8,990	1,230E+1	1,230E+1	1,350E+3
397,262	12,300	8,990	1,230E+1	1,230E+1	1,350E+3
397,463	12,300	8,990	1,230E+1	1,230E+1	1,350E+3
397,664	12,300	8,990	1,230E+1	1,230E+1	1,350E+3
397,864	12,440	9,000	1,230E+1	9,023E+0	1,350E+3
398,064	12,440	9,000	1,230E+1	9,023E+0	1,350E+3
398,265	12,440	9,000	1,254E+1	1,254E+1	1,350E+3
398,465	12,440	9,000	1,244E+1	1,244E+1	1,350E+3
398,666	12,440	9,000	1,244E+1	1,244E+1	1,350E+3
398,867	12,440	9,000	1,244E+1	1,244E+1	1,350E+3
399,067	12,440	9,000	1,244E+1	1,244E+1	1,350E+3
399,268	12,440	9,000	1,244E+1	1,244E+1	1,350E+3
399,469	12,900	8,990	1,244E+1	1,244E+1	1,350E+3
399,670	12,900	8,990	1,244E+1	1,244E+1	1,350E+3
399,871	12,900	8,990	1,290E+1	1,290E+1	1,350E+3
400,072	12,900	8,990	1,290E+1	1,290E+1	1,350E+3
400,272	12,900	8,990	1,290E+1	1,290E+1	1,350E+3
400,473	12,380	9,010	1,290E+1	1,290E+1	1,350E+3
400,675	12,380	9,010	1,290E+1	1,290E+1	1,350E+3
400,875	12,380	9,010	1,238E+1	1,238E+1	1,350E+3
401,074	12,380	9,010	1,238E+1	1,238E+1	1,350E+3
401,274	12,380	9,010	1,238E+1	1,238E+1	1,350E+3
401,476	11,850	8,990	1,238E+1	1,238E+1	1,350E+3
401,676	11,850	8,990	1,238E+1	1,238E+1	1,350E+3
401,876	11,850	8,990	1,185E+1	1,185E+1	1,350E+3
402,076	11,850	8,990	1,185E+1	1,185E+1	1,350E+3
402,275	11,850	8,990	1,185E+1	1,185E+1	1,350E+3
402,475	12,190	9,010	1,185E+1	1,185E+1	1,350E+3
402,676	12,190	9,010	1,185E+1	1,185E+1	1,350E+3
402,876	12,190	9,010	1,219E+1	1,219E+1	1,350E+3
403,076	12,190	9,010	1,219E+1	1,219E+1	1,350E+3
403,276	12,190	9,010	1,219E+1	1,219E+1	1,350E+3
403,477	13,690	9,020	1,219E+1	9,017E+0	1,350E+3
403,678	13,690	9,020	1,219E+1	9,017E+0	1,350E+3
403,879	13,690	9,020	1,219E+1	9,017E+0	1,350E+3
404,079	13,690	9,020	1,272E+1	1,272E+1	1,350E+3
404,279	13,690	9,020	1,369E+1	1,369E+1	1,350E+3
404,479	13,690	9,020	1,369E+1	1,369E+1	1,350E+3
404,680	13,690	9,020	1,369E+1	1,369E+1	1,350E+3
404,880	13,690	9,020	1,369E+1	1,369E+1	1,350E+3
405,080	13,690	9,020	1,369E+1	1,369E+1	1,350E+3
405,280	12,330	9,000	1,369E+1	1,369E+1	1,350E+3
405,482	12,330	9,000	1,369E+1	1,369E+1	1,350E+3
405,682	12,330	9,000	1,233E+1	1,233E+1	1,350E+3
405,883	12,330	9,000	1,233E+1	1,233E+1	1,350E+3
406,084	12,330	9,000	1,233E+1	1,233E+1	1,350E+3
406,283	13,070	8,990	1,233E+1	1,233E+1	1,350E+3
406,483	13,070	8,990	1,233E+1	1,233E+1	1,350E+3
406,685	13,070	8,990	1,307E+1	1,307E+1	1,350E+3
406,886	13,070	8,990	1,307E+1	1,307E+1	1,350E+3
407,085	13,070	8,990	1,307E+1	1,307E+1	1,350E+3
407,286	12,130	9,000	1,307E+1	1,307E+1	1,350E+3
407,485	12,130	9,000	1,307E+1	1,307E+1	1,350E+3
407,686	12,130	9,000	1,213E+1	1,213E+1	1,350E+3
407,887	12,130	9,000	1,213E+1	1,213E+1	1,350E+3
408,088	12,130	9,000	1,213E+1	1,213E+1	1,350E+3
408,289	11,770	8,960	1,213E+1	1,213E+1	1,350E+3
408,489	11,770	8,960	1,177E+1	1,177E+1	1,350E+3
408,690	11,770	8,960	1,177E+1	1,177E+1	1,350E+3
408,889	11,770	8,960	1,177E+1	1,177E+1	1,350E+3
409,089	11,770	8,960	1,177E+1	1,177E+1	1,350E+3
409,289	12,860	9,010	1,177E+1	9,007E+0	1,350E+3
409,491	12,860	9,010	1,177E+1	9,007E+0	1,350E+3
409,694	12,860	9,010	1,248E+1	1,248E+1	1,350E+3
409,894	12,860	9,010	1,248E+1	1,248E+1	1,350E+3
410,095	12,860	9,010	1,286E+1	1,286E+1	1,350E+3
410,296	12,860	9,010	1,286E+1	1,286E+1	1,350E+3
410,496	12,860	9,010	1,286E+1	1,286E+1	1,350E+3
410,696	12,860	9,010	1,286E+1	1,286E+1	1,350E+3
410,896	12,860	9,010	1,286E+1	1,286E+1	1,350E+3
411,098	12,660	9,010	1,286E+1	1,286E+1	1,350E+3
411,298	12,660	9,010	1,266E+1	1,266E+1	1,350E+3
411,498	12,660	9,010	1,266E+1	1,266E+1	1,350E+3
411,699	12,660	9,010	1,266E+1	1,266E+1	1,350E+3
411,898	12,660	9,010	1,266E+1	1,266E+1	1,350E+3
412,099	13,140	9,000	1,266E+1	1,266E+1	1,350E+3
412,299	13,140	9,000	1,314E+1	1,314E+1	1,350E+3
412,500	13,140	9,000	1,314E+1	1,314E+1	1,350E+3
412,701	13,140	9,000	1,314E+1	1,314E+1	1,350E+3
412,901	13,140	9,000	1,314E+1	1,314E+1	1,350E+3
413,101	11,960	8,990	1,314E+1	1,314E+1	1,350E+3
413,302	11,960	8,990	1,196E+1	1,196E+1	1,350E+3
413,501	11,960	8,990	1,196E+1	1,196E+1	1,350E+3
413,703	11,960	8,990	1,196E+1	1,196E+1	1,350E+3
413,906	11,960	8,990	1,196E+1	1,196E+1	1,350E+3
414,106	12,740	9,000	1,196E+1	1,196E+1	1,350E+3
414,305	12,740	9,000	1,274E+1	1,274E+1	1,350E+3
414,506	12,740	9,000	1,274E+1	1,274E+1	1,350E+3
414,706	12,740	9,000	1,274E+1	1,274E+1	1,350E+3
414,908	12,740	9,000	1,274E+1	1,274E+1	1,350E+3
415,107	12,800	9,000	1,274E+1	9,020E+0	1,350E+3
415,308	12,800	9,000	1,274E+1	9,020E+0	1,350E+3
415,508	12,800	9,000	1,252E+1	1,252E+1	1,350E+3
415,708	12,800	9,000	1,280E+1	1,280E+1	1,350E+3
415,909	12,800	9,000	1,280E+1	1,280E+1	1,350E+3
416,108	12,800	9,000	1,280E+1	1,280E+1	1,350E+3
416,310	12,800	9,000	1,280E+1	1,280E+1	1,350E+3
416,511	12,800	9,000	1,280E+1	1,280E+1	1,350E+3
416,710	11,930	8,940	1,280E+1	1,280E+1	1,350E+3
416,912	11,930	8,940	1,280E+1	1,280E+1	1,350E+3
417,113	11,930	8,940	1,193E+1	1,193E+1	1,350E+3
417,313	11,930	8,940	1,193E+1	1,193E+1	1,350E+3
417,514	11,930	8,940	1,193E+1	1,193E+1	1,350E+3
417,716	12,380	9,030	1,193E+1	1,193E+1	1,350E+3
417,915	12,380	9,030	1,193E+1	1,193E+1	1,350E+3
418,116	12,380	9,030	1,238E+1	1,238E+1	1,350E+3
418,316	12,380	9,030	1,238E+1	1,238E+1	1,350E+3
418,516	12,380	9,030	1,238E+1	1,238E+1	1,350E+3
418,717	12,530	8,980	1,238E+1	1,238E+1	1,350E+3
418,918	12,530	8,980	1,238E+1	1,238E+1	1,350E+3
419,119	12,530	8,980	1,253E+1	1,253E+1	1,350E+3
419,319	12,530	8,980	1,253E+1	1,253E+1	1,350E+3
419,520	12,530	8,980	1,253E+1	1,253E+1	1,350E+3
419,721	13,240	8,980	1,253E+1	1,253E+1	1,350E+3
419,920	13,240	8,980	1,253E+1	1,253E+1	1,350E+3
420,121	13,240	8,980	1,324E+1	1,324E+1	1,350E+3
420,320	13,240	8,980	1,324E+1	1,324E+1	1,350E+3
420,523	13,240	8,980	1,324E+1	1,324E+1	1,350E+3
420,725	11,970	8,950	1,324E+1	8,993E+0	1,350E+3
420,926	11,970	8,950	1,324E+1	8,993E+0	1,350E+3
421,126	11,970	8,950	1,324E+1	8,993E+0	1,350E+3
421,330	11,970	8,950	1,238E+1	1,238E+1	1,350E+3
421,529	11,970	8,950	1,197E+1	1,197E+1	1,350E+3
421,731	11,970	8,950	1,197E+1	1,197E+1	1,350E+3
421,931	11,970	8,950	1,197E+1	1,197E+1	1,350E+3
422,132	11,970	8,950	1,197E+1	1,197E+1	1,350E+3
422,332	12,270	8,970	1,197E+1	1,197E+1	1,350E+3
422,531	12,270	8,970	1,197E+1	1,197E+1	1,350E+3
422,731	12,270	8,970	1,227E+1	1,227E+1	1,350E+3
422,931	12,270	8,970	1,227E+1	1,227E+1	1,350E+3
423,132	12,270	8,970	1,227E+1	1,227E+1	1,350E+3
423,331	12,270	8,970	1,227E+1	1,227E+1	1,350E+3
423,533	12,270	8,970	1,227E+1	1,227E+1	1,350E+3
423,733	12,140	8,990	1,227E+1	1,227E+1	1,350E+3
423,934	12,140	8,990	1,227E+1	1,227E+1	1,350E+3
424,134	12,140	8,990	1,214E+1	1,214E+1	1,350E+3
424,335	12,140	8,990	1,214E+1	1,214E+1	1,350E+3
424,536	11,430	8,950	1,214E+1	1,214E+1	1,350E+3
424,735	11,430	8,950	1,214E+1	1,214E+1	1,350E+3
424,935	11,430	8,950	1,143E+1	1,143E+1	1,350E+3
425,135	11,430	8,950	1,143E+1	1,143E+1	1,350E+3
425,336	11,430	8,950	1,143E+1	1,143E+1	1,350E+3
425,537	11,430	8,950	1,143E+1	1,143E+1	1,350E+3
425,739	12,440	8,990	1,143E+1	1,143E+1	1,350E+3
425,939	12,440	8,990	1,143E+1	1,143E+1	1,350E+3
426,138	12,440	8,990	1,244E+1	1,244E+1	1,350E+3
426,340	12,440	8,990	1,244E+1	1,244E+1	1,350E+3
426,541	12,240	8,920	1,244E+1	8,985E+0	1,350E+3
426,741	12,240	8,920	1,244E+1	8,985E+0	1,350E+3
426,942	12,240	8,920	1,244E+1	8,985E+0	1,350E+3
427,142	12,240	8,920	1,242E+1	1,242E+1	1,350E+3
427,341	12,240	8,920	1,224E+1	1,224E+1	1,350E+3
427,543	12,240	8,920	1,224E+1	1,224E+1	1,350E+3
427,743	12,240	8,920	1,224E+1	1,224E+1	1,350E+3
427,944	12,240	8,920	1,224E+1	1,224E+1	1,350E+3
428,145	12,240	8,920	1,224E+1	1,224E+1	1,350E+3
428,346	13,020	8,970	1,224E+1	1,224E+1	1,350E+3
428,545	13,020	8,970	1,224E+1	1,224E+1	1,350E+3
428,746	13,020	8,970	1,302E+1	1,302E+1	1,350E+3
428,947	13,020	8,970	1,302E+1	1,302E+1	1,350E+3
429,146	13,000	8,940	1,302E+1	1,302E+1	1,350E+3
429,347	13,000	8,940	1,302E+1	1,302E+1	1,350E+3
429,547	13,000	8,940	1,300E+1	1,300E+1	1,350E+3
429,747	13,000	8,940	1,300E+1	1,300E+1	1,350E+3
429,948	13,000	8,940	1,300E+1	1,300E+1	1,350E+3
430,147	11,810	8,960	1,300E+1	1,300E+1	1,350E+3
430,347	11,810	8,960	1,300E+1	1,300E+1	1,350E+3
430,548	11,810	8,960	1,181E+1	1,181E+1	1,350E+3
430,748	11,810	8,960	1,181E+1	1,181E+1	1,350E+3
430,949	11,810	8,960	1,181E+1	1,181E+1	1,350E+3
431,150	12,640	8,970	1,181E+1	1,181E+1	1,350E+3
431,351	12,640	8,970	1,181E+1	1,181E+1	1,350E+3
431,551	12,640	8,970	1,264E+1	1,264E+1	1,350E+3
431,752	12,640	8,970	1,264E+1	1,264E+1	1,350E+3
431,951	12,640	8,970	1,264E+1	1,264E+1	1,350E+3
432,153	12,980	8,950	1,264E+1	8,972E+0	1,350E+3
432,352	12,980	8,950	1,264E+1	8,972E+0	1,350E+3
432,553	12,980	8,950	1,264E+1	8,972E+0	1,350E+3
432,753	12,980	8,950	1,250E+1	1,250E+1	1,350E+3
432,953	12,980	8,950	1,250E+1	1,250E+1	1,350E+3
433,152	12,980	8,950	1,298E+1	1,298E+1	1,350E+3
433,353	12,980	8,950	1,298E+1	1,298E+1	1,350E+3
433,555	12,980	8,950	1,298E+1	1,298E+1	1,350E+3
433,755	12,980	8,950	1,298E+1	1,298E+1	1,350E+3
433,957	12,740	8,940	1,298E+1	1,298E+1	1,350E+3
434,156	12,740	8,940	1,298E+1	1,298E+1	1,350E+3
434,356	12,740	8,940	1,274E+1	1,274E+1	1,350E+3
434,559	12,740	8,940	1,274E+1	1,274E+1	1,350E+3
434,758	12,740	8,940	1,274E+1	1,274E+1	1,350E+3
434,958	12,740	8,940	1,274E+1	1,274E+1	1,350E+3
435,158	12,980	9,000	1,274E+1	1,274E+1	1,350E+3
435,359	12,980	9,000	1,274E+1	1,274E+1	1,350E+3
435,558	12,980	9,000	1,298E+1	1,298E+1	1,350E+3
435,760	12,980	9,000	1,298E+1	1,298E+1	1,350E+3
435,960	12,220	8,970	1,298E+1	1,298E+1	1,350E+3
436,161	12,220	8,970	1,298E+1	1,298E+1	1,350E+3
436,362	12,220	8,970	1,222E+1	1,222E+1	1,350E+3
436,561	12,220	8,970	1,222E+1	1,222E+1	1,350E+3
436,762	12,220	8,970	1,222E+1	1,222E+1	1,350E+3
436,963	12,180	8,970	1,222E+1	1,222E+1	1,350E+3
437,164	12,180	8,970	1,222E+1	1,222E+1	1,350E+3
437,365	12,180	8,970	1,218E+1	1,218E+1	1,350E+3
437,565	12,180	8,970	1,218E+1	1,218E+1	1,350E+3
437,765	12,180	8,970	1,218E+1	1,218E+1	1,350E+3
437,966	11,830	8,930	1,218E+1	8,982E+0	1,350E+3
438,166	11,830	8,930	1,218E+1	8,982E+0	1,350E+3
438,365	11,830	8,930	1,253E+1	1,253E+1	1,350E+3
438,566	11,830	8,930	1,253E+1	1,253E+1	1,350E+3
438,768	11,830	8,930	1,183E+1	1,183E+1	1,350E+3
438,968	11,830	8,930	1,183E+1	1,183E+1	1,350E+3
439,168	11,830	8,930	1,183E+1	1,183E+1	1,350E+3
439,370	11,830	8,930	1,183E+1	1,183E+1	1,350E+3
439,570	11,830	8,930	1,183E+1	1,183E+1	1,350E+3
439,769	12,350	8,970	1,183E+1	1,183E+1	1,350E+3
439,970	12,350	8,970	1,183E+1	1,183E+1	1,350E+3
440,172	12,350	8,970	1,235E+1	1,235E+1	1,350E+3
440,372	12,350	8,970	1,235E+1	1,235E+1	1,350E+3
440,574	12,350	8,970	1,235E+1	1,235E+1	1,350E+3
440,774	12,260	8,930	1,235E+1	1,235E+1	1,350E+3
440,976	12,260	8,930	1,226E+1	1,226E+1	1,350E+3
441,176	12,260	8,930	1,226E+1	1,226E+1	1,350E+3
441,377	12,260	8,930	1,226E+1	1,226E+1	1,350E+3
441,577	12,260	8,930	1,226E+1	1,226E+1	1,350E+3
441,777	12,830	8,950	1,226E+1	1,226E+1	1,350E+3
441,979	12,830	8,950	1,283E+1	1,283E+1	1,350E+3
442,178	12,830	8,950	1,283E+1	1,283E+1	1,350E+3
442,380	12,830	8,950	1,283E+1	1,283E+1	1,350E+3
442,579	12,830	8,950	1,283E+1	1,283E+1	1,350E+3
442,779	12,620	8,930	1,283E+1	1,283E+1	1,350E+3
442,979	12,620	8,930	1,262E+1	1,262E+1	1,350E+3
443,179	12,620	8,930	1,262E+1	1,262E+1	1,350E+3
443,379	12,620	8,930	1,262E+1	1,262E+1	1,350E+3
443,579	12,620	8,930	1,262E+1	1,262E+1	1,350E+3
443,779	12,600	8,980	1,262E+1	8,970E+0	1,350E+3
443,981	12,600	8,980	1,262E+1	8,970E+0	1,350E+3
444,180	12,600	8,980	1,247E+1	1,247E+1	1,350E+3
444,383	12,600	8,980	1,247E+1	1,247E+1	1,350E+3
444,585	12,600	8,980	1,260E+1	1,260E+1	1,350E+3
444,786	12,600	8,980	1,260E+1	1,260E+1	1,350E+3
444,988	12,600	8,980	1,260E+1	1,260E+1	1,350E+3
445,189	12,600	8,980	1,260E+1	1,260E+1	1,350E+3
445,390	12,600	8,980	1,260E+1	1,260E+1	1,350E+3
445,590	12,420	8,990	1,260E+1	1,260E+1	1,350E+3
445,790	12,420	8,990	1,242E+1	1,242E+1	1,350E+3
445,990	12,420	8,990	1,242E+1	1,242E+1	1,350E+3
446,191	12,420	8,990	1,242E+1	1,242E+1	1,350E+3
446,391	11,970	8,910	1,242E+1	1,242E+1	1,350E+3
446,592	11,970	8,910	1,242E+1	1,242E+1	1,350E+3
446,794	11,970	8,910	1,197E+1	1,197E+1	1,350E+3
446,995	11,970	8,910	1,197E+1	1,197E+1	1,350E+3
447,194	11,970	8,910	1,197E+1	1,197E+1	1,350E+3
447,396	12,250	8,940	1,197E+1	1,197E+1	1,350E+3
447,596	12,250	8,940	1,197E+1	1,197E+1	1,350E+3
447,796	12,250	8,940	1,225E+1	1,225E+1	1,350E+3
447,996	12,250	8,940	1,225E+1	1,225E+1	1,350E+3
448,196	12,250	8,940	1,225E+1	1,225E+1	1,350E+3
448,396	12,780	8,960	1,225E+1	1,225E+1	1,350E+3
448,598	12,780	8,960	1,225E+1	1,225E+1	1,350E+3
448,798	12,780	8,960	1,278E+1	1,278E+1	1,350E+3
448,998	12,780	8,960	1,278E+1	1,278E+1	1,350E+3
449,199	12,780	8,960	1,278E+1	1,278E+1	1,350E+3
449,399	12,350	8,930	1,278E+1	8,966E+0	1,350E+3
449,601	12,350	8,930	1,278E+1	8,966E+0	1,350E+3
449,801	12,350	8,930	1,278E+1	8,966E+0	1,350E+3
450,000	12,350	8,930	1,253E+1	1,253E+1	1,350E+3
450,200	12,350	8,930	1,235E+1	1,235E+1	1,350E+3
450,403	12,350	8,930	1,235E+1	1,235E+1	1,350E+3
450,603	12,350	8,930	1,235E+1	1,235E+1	1,350E+3
450,804	12,350	8,930	1,235E+1	1,235E+1	1,350E+3
451,005	12,350	8,930	1,235E+1	1,235E+1	1,350E+3
451,206	13,480	8,940	1,235E+1	1,235E+1	1,350E+3
451,406	13,480	8,940	1,235E+1	1,235E+1	1,350E+3
451,607	13,480	8,940	1,348E+1	1,348E+1	1,350E+3
451,809	13,480	8,940	1,348E+1	1,348E+1	1,350E+3
452,011	12,480	8,940	1,348E+1	1,348E+1	1,350E+3
452,211	12,480	8,940	1,348E+1	1,348E+1	1,350E+3
452,410	12,480	8,940	1,248E+1	1,248E+1	1,350E+3
452,613	12,480	8,940	1,248E+1	1,248E+1	1,350E+3
452,813	12,480	8,940	1,248E+1	1,248E+1	1,350E+3
453,013	12,480	8,940	1,248E+1	1,248E+1	1,350E+3
453,215	12,480	8,940	1,248E+1	1,248E+1	1,350E+3
453,415	12,240	8,940	1,248E+1	1,248E+1	1,350E+3
453,615	12,240	8,940	1,248E+1	1,248E+1	1,350E+3
453,823	12,240	8,940	1,224E+1	1,224E+1	1,350E+3
